Data from zc_m3_p5_Reflection_5,txt Node
Date: Wed Nov 25 16:57:49 GMT-03:00 2020
User: Darío
Spectrometer: USB2E3644
Trigger mode: 4
Integration Time (sec): 9,000000E-2
Scans to average: 10
Electric dark correction enabled: true
Nonlinearity correction enabled: false
Boxcar width: 10
XAxis mode: Wavelengths
Number of Pixels in Spectrum: 2048
>>>>>Begin Spectral Data<<<<<
178,315	76,86
178,696	86,23
179,076	76,69
179,457	73,93
179,838	60,57
180,218	39,58
180,599	27,86
180,979	49,09
181,36	123,33
181,74	192,16
182,121	118,59
182,501	87,29
182,881	80,03
183,262	88,75
183,642	95,22
184,022	102,61
184,402	104,45
184,783	107,69
185,163	104,48
185,543	108,13
185,923	110,92
186,303	111,19
186,683	117,06
187,063	117,03
187,443	118,73
187,823	119,79
188,203	118,98
188,583	119,61
188,963	120,7
189,343	119,4
189,723	119,59
190,102	120,64
190,482	122,96
190,862	122,23
191,242	119,97
191,621	120,95
192,001	119,38
192,38	119,01
192,76	119,14
193,14	118,79
193,519	116,57
193,898	116,83
194,278	116,86
194,657	115,14
195,037	115,37
195,416	114,42
195,795	112,36
196,175	109,93
196,554	111,36
196,933	113,4
197,312	115,25
197,692	112,87
198,071	110,49
198,45	111,01
198,829	111,46
199,208	112,99
199,587	112,51
199,966	111,03
200,345	110,44
200,724	108,8
201,103	109,37
201,482	108,28
201,86	106,1
202,239	104,47
202,618	102,95
202,997	102,21
203,375	101,9
203,754	99,98
204,133	100,94
204,511	99,77
204,89	98,41
205,269	96,45
205,647	97,9
206,026	100,2
206,404	100,55
206,782	100,66
207,161	99,54
207,539	100,43
207,918	104,53
208,296	108,03
208,674	109,4
209,052	110,21
209,431	112,36
209,809	114,25
210,187	116,84
210,565	119,19
210,943	121,17
211,321	122,17
211,699	125,76
212,077	126,49
212,455	127,9
212,833	128,44
213,211	127,74
213,589	125,78
213,967	124,71
214,345	124,31
214,722	123,29
215,1	122,09
215,478	119,4
215,855	115,64
216,233	113,23
216,611	112,16
216,988	112,59
217,366	112,28
217,743	112,92
218,121	112,63
218,498	110,82
218,876	108,19
219,253	107,14
219,631	105,89
220,008	107,35
220,385	107,63
220,762	108,31
221,14	109,49
221,517	109,23
221,894	109,63
222,271	108,17
222,648	110,25
223,025	112,66
223,402	113,43
223,78	113,94
224,157	113,38
224,533	115,71
224,91	117,32
225,287	121,18
225,664	126,28
226,041	128,02
226,418	130,46
226,795	130,36
227,171	132,01
227,548	136,38
227,925	136,33
228,301	140,56
228,678	146,88
229,055	148,65
229,431	153,96
229,808	155,81
230,184	159,88
230,561	162,49
230,937	166,93
231,313	167,76
231,69	172,44
232,066	177,06
232,442	184,26
232,819	186,02
233,195	178,63
233,571	175,55
233,947	177,14
234,323	176,71
234,699	185,1
235,075	189,81
235,451	196,99
235,827	206,81
236,203	214,69
236,579	213,81
236,955	223,44
237,331	237,27
237,707	261,49
238,083	296,99
238,459	344,56
238,834	418,66
239,21	602,1
239,586	1030,17
239,961	2484,34
240,337	5934,52
240,713	-2549,48
241,088	-1007,29
241,464	-692,96
241,839	-502,44
242,215	-341,7
242,59	-247,02
242,965	-173,17
243,341	-121,14
243,716	-89
244,091	-73,63
244,467	-62,4
244,842	-55,02
245,217	-52,09
245,592	-50,16
245,967	-50,81
246,343	-49,82
246,718	-51,01
247,093	-51,9
247,468	-51,5
247,843	-50,48
248,218	-47,44
248,593	-46,34
248,967	-44,73
249,342	-43,64
249,717	-44,3
250,092	-45,68
250,467	-46,62
250,841	-48,83
251,216	-53,46
251,591	-59,92
251,965	-66,32
252,34	-73,16
252,714	-77,04
253,089	-77,64
253,463	-77,68
253,838	-73,84
254,212	-71,09
254,587	-66,72
254,961	-63,6
255,335	-59,67
255,71	-51,97
256,084	-43,18
256,458	-36,57
256,832	-31,25
257,206	-28,37
257,581	-25,6
257,955	-24,17
258,329	-23,59
258,703	-22,59
259,077	-21,45
259,451	-20,84
259,825	-19,99
260,199	-19,33
260,572	-19,51
260,946	-20,2
261,32	-20,49
261,694	-20,3
262,068	-20,38
262,441	-19,85
262,815	-19,08
263,189	-18,7
263,562	-18,89
263,936	-20,03
264,309	-20,71
264,683	-22,5
265,056	-23,4
265,43	-23,61
265,803	-23,23
266,176	-22,32
266,55	-21,84
266,923	-21,23
267,296	-20,83
267,67	-21,27
268,043	-21,28
268,416	-20,66
268,789	-19,03
269,162	-17,47
269,535	-16,17
269,908	-15,1
270,281	-15,05
270,654	-14,99
271,027	-15,17
271,4	-15,84
271,773	-16,37
272,146	-17,22
272,519	-17,61
272,891	-17,84
273,264	-18,18
273,637	-18,22
274,01	-18,47
274,382	-18,81
274,755	-19,28
275,127	-19,5
275,5	-19,14
275,872	-18,64
276,245	-18,33
276,617	-19,12
276,99	-19,98
277,362	-20,76
277,734	-20,96
278,107	-20,79
278,479	-20,11
278,851	-19,37
279,223	-18,01
279,596	-16,9
279,968	-15,83
280,34	-15,06
280,712	-14,8
281,084	-14,59
281,456	-14,25
281,828	-13,65
282,2	-13,04
282,572	-12,11
282,944	-11,54
283,315	-10,9
283,687	-10,59
284,059	-10,4
284,431	-9,93
284,802	-9,48
285,174	-9,43
285,546	-9,37
285,917	-9,3
286,289	-9,35
286,66	-9,08
287,032	-8,99
287,403	-9,04
287,775	-8,81
288,146	-8,68
288,518	-8,39
288,889	-8,05
289,26	-7,88
289,632	-7,88
290,003	-8,03
290,374	-8,6
290,745	-8,95
291,116	-9,13
291,487	-9,26
291,858	-9,21
292,229	-9,24
292,6	-8,93
292,971	-8,51
293,342	-8,18
293,713	-7,57
294,084	-7,26
294,455	-7,15
294,826	-7,26
295,196	-7,17
295,567	-7,42
295,938	-7,46
296,308	-7,8
296,679	-7,91
297,05	-7,82
297,42	-7,99
297,791	-7,86
298,161	-7,66
298,532	-7,38
298,902	-7,38
299,272	-7,28
299,643	-7,05
300,013	-6,83
300,383	-6,81
300,754	-6,71
301,124	-6,85
301,494	-7,06
301,864	-7,1
302,234	-7,2
302,604	-7,08
302,974	-6,97
303,344	-6,85
303,714	-6,87
304,084	-6,63
304,454	-6,17
304,824	-6,01
305,194	-5,91
305,563	-5,75
305,933	-5,63
306,303	-5,63
306,673	-5,24
307,042	-5,09
307,412	-5,25
307,781	-4,99
308,151	-4,88
308,521	-4,87
308,89	-4,66
309,259	-4,57
309,629	-4,52
309,998	-4,51
310,368	-4,5
310,737	-4,48
311,106	-4,48
311,475	-4,36
311,845	-4,14
312,214	-4,28
312,583	-4,37
312,952	-4,35
313,321	-4,5
313,69	-4,54
314,059	-4,34
314,428	-4,17
314,797	-4,08
315,166	-4,01
315,535	-4,24
315,904	-4,49
316,272	-4,83
316,641	-4,88
317,01	-5
317,379	-4,96
317,747	-4,79
318,116	-4,6
318,484	-4,47
318,853	-4,42
319,221	-4,38
319,59	-4,41
319,958	-4,42
320,327	-4,29
320,695	-3,97
321,063	-3,57
321,432	-3,2
321,8	-3,24
322,168	-3,5
322,536	-3,4
322,905	-3,39
323,273	-3,31
323,641	-3,22
324,009	-2,88
324,377	-2,88
324,745	-2,74
325,113	-2,55
325,481	-2,42
325,849	-2,55
326,216	-2,57
326,584	-2,49
326,952	-2,37
327,32	-2,27
327,687	-2,18
328,055	-2,12
328,423	-2,06
328,79	-2,02
329,158	-2,12
329,525	-2,13
329,893	-2,06
330,26	-2,06
330,628	-1,85
330,995	-1,72
331,362	-1,53
331,73	-1,51
332,097	-1,33
332,464	-1,19
332,831	-1,25
333,199	-1,12
333,566	-0,84
333,933	-0,6
334,3	-0,43
334,667	-0,34
335,034	-0,42
335,401	-0,41
335,768	-0,42
336,135	-0,47
336,502	-0,48
336,868	-0,35
337,235	-0,09
337,602	0,15
337,969	0,25
338,335	0,29
338,702	0,2
339,069	0,09
339,435	0,11
339,802	0
340,168	-0,14
340,535	-0,2
340,901	-0,31
341,267	-0,51
341,634	-0,62
342	-0,73
342,366	-0,83
342,733	-0,86
343,099	-0,82
343,465	-0,77
343,831	-0,69
344,197	-0,55
344,563	-0,52
344,929	-0,63
345,295	-0,82
345,661	-0,9
346,027	-0,91
346,393	-0,69
346,759	-0,54
347,125	-0,5
347,491	-0,31
347,856	-0,07
348,222	0,17
348,588	0,29
348,953	0,44
349,319	0,49
349,684	0,57
350,05	0,54
350,415	0,72
350,781	0,83
351,146	0,99
351,512	1,06
351,877	0,99
352,242	0,98
352,608	1,12
352,973	1,27
353,338	1,32
353,703	1,26
354,068	1,12
354,433	1,12
354,798	1,17
355,164	1,07
355,528	0,98
355,893	0,88
356,258	0,86
356,623	0,86
356,988	0,82
357,353	0,82
357,718	0,92
358,082	1,01
358,447	1,03
358,812	1,04
359,176	1,11
359,541	1,2
359,905	1,24
360,27	1,11
360,634	1,12
360,999	1,18
361,363	1,27
361,728	1,41
362,092	1,46
362,456	1,52
362,821	1,62
363,185	1,68
363,549	1,75
363,913	1,83
364,277	1,92
364,641	2,03
365,005	2,13
365,369	2,19
365,733	2,16
366,097	2,21
366,461	2,18
366,825	2,21
367,189	2,29
367,553	2,39
367,916	2,57
368,28	2,61
368,644	2,67
369,007	2,75
369,371	2,77
369,734	2,89
370,098	3,01
370,461	3,07
370,825	3,16
371,188	3,22
371,552	3,29
371,915	3,31
372,278	3,37
372,642	3,43
373,005	3,45
373,368	3,51
373,731	3,54
374,094	3,64
374,457	3,72
374,82	3,73
375,183	3,83
375,546	3,87
375,909	3,93
376,272	4,03
376,635	4,11
376,998	4,18
377,361	4,23
377,723	4,26
378,086	4,32
378,449	4,38
378,811	4,43
379,174	4,47
379,537	4,55
379,899	4,6
380,262	4,61
380,624	4,68
380,987	4,72
381,349	4,78
381,711	4,8
382,074	4,78
382,436	4,79
382,798	4,78
383,16	4,82
383,522	4,84
383,884	4,82
384,247	4,83
384,609	4,86
384,971	4,87
385,333	4,86
385,695	4,86
386,056	4,84
386,418	4,88
386,78	4,91
387,142	4,91
387,504	4,93
387,865	4,97
388,227	5,01
388,589	5,04
388,95	5,05
389,312	5,06
389,673	5,1
390,035	5,14
390,396	5,14
390,758	5,13
391,119	5,15
391,48	5,2
391,842	5,21
392,203	5,22
392,564	5,23
392,925	5,26
393,286	5,25
393,648	5,27
394,009	5,27
394,37	5,28
394,731	5,3
395,092	5,29
395,452	5,29
395,813	5,33
396,174	5,37
396,535	5,42
396,896	5,46
397,257	5,46
397,617	5,51
397,978	5,58
398,338	5,6
398,699	5,61
399,06	5,61
399,42	5,62
399,781	5,61
400,141	5,58
400,501	5,56
400,862	5,56
401,222	5,55
401,582	5,53
401,943	5,49
402,303	5,49
402,663	5,53
403,023	5,52
403,383	5,52
403,743	5,51
404,103	5,47
404,463	5,46
404,823	5,49
405,183	5,48
405,543	5,45
405,903	5,47
406,262	5,45
406,622	5,44
406,982	5,42
407,342	5,46
407,701	5,52
408,061	5,57
408,42	5,6
408,78	5,62
409,139	5,64
409,499	5,65
409,858	5,66
410,217	5,64
410,577	5,65
410,936	5,64
411,295	5,62
411,655	5,6
412,014	5,58
412,373	5,55
412,732	5,5
413,091	5,5
413,45	5,48
413,809	5,46
414,168	5,39
414,527	5,34
414,886	5,29
415,245	5,24
415,603	5,17
415,962	5,14
416,321	5,12
416,679	5,06
417,038	5,02
417,397	4,96
417,755	4,91
418,114	4,87
418,472	4,85
418,831	4,84
419,189	4,83
419,547	4,81
419,906	4,79
420,264	4,77
420,622	4,74
420,981	4,71
421,339	4,7
421,697	4,71
422,055	4,73
422,413	4,74
422,771	4,74
423,129	4,75
423,487	4,77
423,845	4,8
424,203	4,84
424,56	4,87
424,918	4,91
425,276	4,97
425,634	5,02
425,991	5,04
426,349	5,08
426,707	5,12
427,064	5,16
427,422	5,19
427,779	5,26
428,137	5,32
428,494	5,38
428,851	5,42
429,209	5,45
429,566	5,43
429,923	5,44
430,28	5,45
430,637	5,46
430,995	5,45
431,352	5,44
431,709	5,45
432,066	5,46
432,423	5,46
432,78	5,45
433,137	5,44
433,493	5,43
433,85	5,45
434,207	5,41
434,564	5,4
434,92	5,4
435,277	5,4
435,634	5,39
435,99	5,39
436,347	5,38
436,703	5,38
437,06	5,37
437,416	5,37
437,773	5,36
438,129	5,34
438,485	5,35
438,841	5,35
439,198	5,34
439,554	5,34
439,91	5,36
440,266	5,36
440,622	5,35
440,978	5,35
441,334	5,32
441,69	5,34
442,046	5,32
442,402	5,3
442,758	5,28
443,113	5,25
443,469	5,24
443,825	5,25
444,181	5,26
444,536	5,28
444,892	5,28
445,247	5,3
445,603	5,32
445,958	5,34
446,314	5,35
446,669	5,36
447,025	5,36
447,38	5,36
447,735	5,37
448,09	5,38
448,446	5,4
448,801	5,39
449,156	5,42
449,511	5,45
449,866	5,49
450,221	5,52
450,576	5,58
450,931	5,62
451,286	5,67
451,641	5,69
451,995	5,72
452,35	5,75
452,705	5,76
453,06	5,75
453,414	5,75
453,769	5,74
454,123	5,75
454,478	5,75
454,832	5,75
455,187	5,73
455,541	5,73
455,896	5,71
456,25	5,72
456,604	5,7
456,958	5,68
457,313	5,67
457,667	5,67
458,021	5,65
458,375	5,66
458,729	5,67
459,083	5,67
459,437	5,68
459,791	5,68
460,145	5,7
460,499	5,72
460,852	5,73
461,206	5,74
461,56	5,73
461,914	5,74
462,267	5,75
462,621	5,78
462,974	5,77
463,328	5,8
463,681	5,83
464,035	5,85
464,388	5,89
464,742	5,92
465,095	5,93
465,448	5,97
465,801	5,98
466,155	5,99
466,508	5,99
466,861	5,99
467,214	6
467,567	6
467,92	6,01
468,273	6,02
468,626	6,03
468,979	6,04
469,332	6,05
469,684	6,05
470,037	6,05
470,39	6,07
470,743	6,08
471,095	6,11
471,448	6,14
471,8	6,17
472,153	6,18
472,505	6,21
472,858	6,21
473,21	6,23
473,562	6,24
473,915	6,23
474,267	6,23
474,619	6,24
474,971	6,23
475,324	6,24
475,676	6,23
476,028	6,23
476,38	6,26
476,732	6,26
477,084	6,27
477,436	6,28
477,787	6,3
478,139	6,3
478,491	6,3
478,843	6,28
479,195	6,27
479,546	6,24
479,898	6,19
480,249	6,13
480,601	6,08
480,952	6,03
481,304	6,01
481,655	6,01
482,007	5,99
482,358	5,99
482,709	5,99
483,061	5,99
483,412	5,99
483,763	5,97
484,114	5,97
484,465	5,96
484,816	5,95
485,167	5,94
485,518	5,94
485,869	5,94
486,22	5,95
486,571	5,95
486,922	5,97
487,272	6
487,623	6,03
487,974	6,06
488,324	6,08
488,675	6,11
489,025	6,12
489,376	6,14
489,726	6,16
490,077	6,17
490,427	6,19
490,778	6,21
491,128	6,24
491,478	6,26
491,828	6,31
492,179	6,36
492,529	6,4
492,879	6,43
493,229	6,45
493,579	6,46
493,929	6,46
494,279	6,48
494,629	6,48
494,979	6,49
495,328	6,53
495,678	6,58
496,028	6,63
496,378	6,67
496,727	6,72
497,077	6,75
497,426	6,78
497,776	6,8
498,125	6,81
498,475	6,82
498,824	6,84
499,174	6,85
499,523	6,87
499,872	6,87
500,221	6,89
500,571	6,91
500,92	6,94
501,269	6,98
501,618	7
501,967	6,99
502,316	7,03
502,665	7,05
503,014	7,08
503,363	7,1
503,711	7,12
504,06	7,13
504,409	7,12
504,758	7,1
505,106	7,12
505,455	7,14
505,803	7,14
506,152	7,14
506,5	7,12
506,849	7,12
507,197	7,13
507,546	7,15
507,894	7,15
508,242	7,15
508,59	7,15
508,939	7,14
509,287	7,18
509,635	7,19
509,983	7,22
510,331	7,23
510,679	7,25
511,027	7,25
511,375	7,28
511,723	7,3
512,07	7,34
512,418	7,37
512,766	7,4
513,114	7,43
513,461	7,47
513,809	7,51
514,156	7,53
514,504	7,54
514,851	7,54
515,199	7,56
515,546	7,57
515,893	7,6
516,241	7,63
516,588	7,63
516,935	7,64
517,282	7,64
517,63	7,65
517,977	7,66
518,324	7,69
518,671	7,69
519,018	7,71
519,365	7,72
519,711	7,72
520,058	7,73
520,405	7,74
520,752	7,75
521,099	7,78
521,445	7,81
521,792	7,84
522,138	7,85
522,485	7,86
522,832	7,87
523,178	7,89
523,524	7,9
523,871	7,92
524,217	7,96
524,563	7,98
524,91	7,97
525,256	7,95
525,602	7,93
525,948	7,94
526,294	7,94
526,64	7,92
526,986	7,91
527,332	7,9
527,678	7,9
528,024	7,9
528,37	7,9
528,716	7,91
529,061	7,92
529,407	7,95
529,753	7,97
530,098	7,98
530,444	7,98
530,789	8
531,135	8,01
531,48	8,02
531,826	8,03
532,171	8,06
532,516	8,12
532,862	8,17
533,207	8,2
533,552	8,23
533,897	8,27
534,242	8,3
534,587	8,34
534,932	8,39
535,277	8,41
535,622	8,43
535,967	8,45
536,312	8,48
536,657	8,5
537,001	8,53
537,346	8,58
537,691	8,62
538,035	8,63
538,38	8,64
538,724	8,64
539,069	8,67
539,413	8,67
539,758	8,65
540,102	8,67
540,446	8,66
540,791	8,69
541,135	8,72
541,479	8,74
541,823	8,74
542,167	8,75
542,512	8,76
542,856	8,77
543,2	8,78
543,543	8,79
543,887	8,79
544,231	8,82
544,575	8,83
544,919	8,86
545,262	8,9
545,606	8,92
545,95	8,96
546,293	8,99
546,637	9,03
546,98	9,1
547,324	9,12
547,667	9,18
548,011	9,21
548,354	9,24
548,697	9,25
549,04	9,28
549,384	9,32
549,727	9,33
550,07	9,37
550,413	9,4
550,756	9,43
551,099	9,47
551,442	9,47
551,785	9,5
552,128	9,52
552,47	9,53
552,813	9,58
553,156	9,59
553,499	9,57
553,841	9,56
554,184	9,54
554,526	9,52
554,869	9,51
555,211	9,53
555,554	9,51
555,896	9,57
556,238	9,57
556,581	9,55
556,923	9,56
557,265	9,56
557,607	9,57
557,949	9,57
558,291	9,58
558,633	9,58
558,975	9,58
559,317	9,59
559,659	9,59
560,001	9,57
560,343	9,58
560,685	9,59
561,026	9,63
561,368	9,65
561,71	9,69
562,051	9,74
562,393	9,77
562,734	9,77
563,076	9,74
563,417	9,74
563,759	9,78
564,1	9,78
564,441	9,78
564,782	9,78
565,124	9,79
565,465	9,79
565,806	9,79
566,147	9,8
566,488	9,81
566,829	9,83
567,17	9,84
567,511	9,86
567,851	9,89
568,192	9,89
568,533	9,9
568,874	9,92
569,214	9,9
569,555	9,92
569,895	9,97
570,236	10,01
570,576	10,03
570,917	10
571,257	10,02
571,598	10,04
571,938	10,04
572,278	10,06
572,618	10,11
572,959	10,13
573,299	10,14
573,639	10,14
573,979	10,15
574,319	10,17
574,659	10,18
574,999	10,17
575,339	10,19
575,678	10,18
576,018	10,16
576,358	10,15
576,698	10,1
577,037	10,07
577,377	10,06
577,716	10,07
578,056	10,1
578,395	10,11
578,735	10,15
579,074	10,17
579,413	10,17
579,753	10,13
580,092	10,14
580,431	10,18
580,77	10,21
581,109	10,22
581,448	10,23
581,787	10,23
582,126	10,26
582,465	10,27
582,804	10,32
583,143	10,35
583,482	10,41
583,82	10,46
584,159	10,49
584,498	10,53
584,836	10,56
585,175	10,58
585,514	10,62
585,852	10,64
586,19	10,67
586,529	10,68
586,867	10,73
587,205	10,76
587,544	10,79
587,882	10,79
588,22	10,79
588,558	10,85
588,896	10,93
589,234	10,96
589,572	10,99
589,91	11
590,248	11,03
590,586	11,02
590,924	11,04
591,262	11,08
591,599	11,08
591,937	11,13
592,275	11,13
592,612	11,15
592,95	11,18
593,287	11,26
593,625	11,33
593,962	11,39
594,299	11,44
594,637	11,48
594,974	11,53
595,311	11,57
595,648	11,58
595,985	11,58
596,322	11,57
596,659	11,63
596,996	11,66
597,333	11,67
597,67	11,71
598,007	11,76
598,344	11,75
598,681	11,8
599,017	11,79
599,354	11,84
599,691	11,89
600,027	11,95
600,364	11,95
600,7	11,99
601,037	12
601,373	12,07
601,71	12,1
602,046	12,14
602,382	12,2
602,718	12,2
603,054	12,23
603,391	12,29
603,727	12,29
604,063	12,34
604,399	12,36
604,735	12,38
605,071	12,39
605,406	12,43
605,742	12,46
606,078	12,52
606,414	12,57
606,749	12,59
607,085	12,59
607,421	12,61
607,756	12,6
608,092	12,63
608,427	12,61
608,762	12,62
609,098	12,63
609,433	12,63
609,768	12,67
610,104	12,67
610,439	12,68
610,774	12,72
611,109	12,68
611,444	12,71
611,779	12,76
612,114	12,8
612,449	12,82
612,784	12,83
613,118	12,8
613,453	12,79
613,788	12,82
614,123	12,83
614,457	12,83
614,792	12,88
615,126	12,86
615,461	12,85
615,795	12,87
616,13	12,9
616,464	12,94
616,798	12,94
617,132	12,99
617,467	13,04
617,801	13,06
618,135	13,1
618,469	13,14
618,803	13,15
619,137	13,13
619,471	13,15
619,805	13,18
620,139	13,25
620,472	13,28
620,806	13,3
621,14	13,33
621,473	13,37
621,807	13,38
622,141	13,44
622,474	13,51
622,808	13,55
623,141	13,57
623,474	13,62
623,808	13,68
624,141	13,73
624,474	13,74
624,807	13,75
625,141	13,81
625,474	13,82
625,807	13,83
626,14	13,86
626,473	13,89
626,806	13,92
627,138	13,93
627,471	13,94
627,804	13,93
628,137	13,94
628,469	13,95
628,802	13,99
629,135	14,02
629,467	14,07
629,8	14,1
630,132	14,12
630,465	14,11
630,797	14,15
631,129	14,16
631,461	14,17
631,794	14,23
632,126	14,24
632,458	14,3
632,79	14,36
633,122	14,44
633,454	14,47
633,786	14,5
634,118	14,52
634,45	14,56
634,781	14,62
635,113	14,69
635,445	14,73
635,777	14,71
636,108	14,73
636,44	14,71
636,771	14,73
637,103	14,79
637,434	14,83
637,765	14,83
638,097	14,88
638,428	14,9
638,759	14,88
639,09	14,91
639,422	14,89
639,753	14,89
640,084	14,84
640,415	14,88
640,746	14,94
641,077	14,97
641,407	14,97
641,738	14,98
642,069	14,95
642,4	14,96
642,73	15,04
643,061	15,08
643,392	15,14
643,722	15,14
644,053	15,14
644,383	15,13
644,713	15,15
645,044	15,11
645,374	15,15
645,704	15,15
646,034	15,17
646,365	15,23
646,695	15,3
647,025	15,35
647,355	15,4
647,685	15,42
648,015	15,49
648,344	15,55
648,674	15,55
649,004	15,62
649,334	15,7
649,663	15,71
649,993	15,79
650,323	15,8
650,652	15,83
650,982	15,86
651,311	15,85
651,64	15,84
651,97	15,87
652,299	15,85
652,628	15,9
652,958	15,95
653,287	16,01
653,616	15,97
653,945	15,96
654,274	15,96
654,603	15,97
654,932	15,98
655,261	16
655,589	16,1
655,918	16,14
656,247	16,21
656,576	16,29
656,904	16,29
657,233	16,36
657,561	16,35
657,89	16,34
658,218	16,43
658,547	16,48
658,875	16,55
659,203	16,59
