Data from zc_m2_p4_Reflection_4,txt Node
Date: Wed Nov 25 16:49:24 GMT-03:00 2020
User: Darío
Spectrometer: USB2E3644
Trigger mode: 4
Integration Time (sec): 9,000000E-2
Scans to average: 10
Electric dark correction enabled: true
Nonlinearity correction enabled: false
Boxcar width: 10
XAxis mode: Wavelengths
Number of Pixels in Spectrum: 2048
>>>>>Begin Spectral Data<<<<<
178,315	223,45
178,696	172,37
179,076	163,43
179,457	128,29
179,838	132,33
180,218	141,3
180,599	200
180,979	72,73
181,36	-30,54
181,74	-144,12
182,121	370,15
182,501	198,08
182,881	211,57
183,262	210,44
183,642	208,72
184,022	206,44
184,402	199,29
184,783	183,55
185,163	163,31
185,543	161,89
185,923	159,28
186,303	151,47
186,683	145,74
187,063	143
187,443	142,99
187,823	143,4
188,203	142,18
188,583	140,78
188,963	139,71
189,343	137,12
189,723	137,39
190,102	138,82
190,482	137,76
190,862	136,11
191,242	134,87
191,621	136,21
192,001	136,35
192,38	134,49
192,76	133,93
193,14	131,81
193,519	127,16
193,898	123,31
194,278	122,36
194,657	122,11
195,037	120,04
195,416	117,21
195,795	113,52
196,175	110,06
196,554	109,08
196,933	106,57
197,312	103,61
197,692	101,39
198,071	97,66
198,45	95,12
198,829	95,66
199,208	95,83
199,587	95,16
199,966	95,3
200,345	96
200,724	95,15
201,103	94,43
201,482	94,34
201,86	95,06
202,239	96,48
202,618	97,24
202,997	98,31
203,375	98,1
203,754	99
204,133	101,25
204,511	101,14
204,89	101,99
205,269	103,02
205,647	104,18
206,026	107,33
206,404	110,82
206,782	109,95
207,161	111,24
207,539	110,9
207,918	110,46
208,296	110,17
208,674	111,57
209,052	112,74
209,431	115,08
209,809	115,64
210,187	112,49
210,565	111,36
210,943	110,8
211,321	111,94
211,699	113,75
212,077	113,64
212,455	116,02
212,833	118,85
213,211	120,35
213,589	118,47
213,967	115,97
214,345	111,98
214,722	109,71
215,1	106
215,478	105,3
215,855	104,14
216,233	103,07
216,611	101,57
216,988	103,12
217,366	104,54
217,743	106,68
218,121	111,34
218,498	114,46
218,876	115,33
219,253	115,68
219,631	112,01
220,008	111,84
220,385	112,08
220,762	111,02
221,14	110,74
221,517	114,05
221,894	118,19
222,271	122,1
222,648	124,61
223,025	128,69
223,402	130,28
223,78	128,96
224,157	128,88
224,533	131,92
224,91	132,2
225,287	130,54
225,664	128,23
226,041	127,34
226,418	126,78
226,795	129,44
227,171	129,77
227,548	136,01
227,925	139,71
228,301	139,41
228,678	137,38
229,055	138,9
229,431	141,62
229,808	139,26
230,184	139,72
230,561	143,66
230,937	144,98
231,313	148,89
231,69	158,35
232,066	166,6
232,442	169,8
232,819	172,67
233,195	176,04
233,571	182,12
233,947	180,01
234,323	179,86
234,699	183,78
235,075	193,17
235,451	198,96
235,827	202,09
236,203	204,23
236,579	220,88
236,955	236,4
237,331	252,74
237,707	295,71
238,083	357,82
238,459	457,48
238,834	808,32
239,21	4055,65
239,586	-1472,67
239,961	-874,76
240,337	-713,32
240,713	-493
241,088	-361,51
241,464	-306,08
241,839	-254,93
242,215	-208,82
242,59	-168,36
242,965	-126,54
243,341	-93,2
243,716	-72,89
244,091	-62,05
244,467	-53,75
244,842	-48,05
245,217	-45,6
245,592	-43,61
245,967	-44,5
246,343	-44,24
246,718	-45,43
247,093	-46,82
247,468	-47,74
247,843	-47,65
248,218	-45,91
248,593	-45,15
248,967	-43,65
249,342	-42,44
249,717	-41,99
250,092	-42,61
250,467	-43,08
250,841	-46,22
251,216	-52,34
251,591	-59,26
251,965	-65,15
252,34	-72,65
252,714	-79,07
253,089	-81,99
253,463	-82,97
253,838	-79,4
254,212	-75,82
254,587	-72,24
254,961	-68,43
255,335	-64,51
255,71	-56,41
256,084	-45,82
256,458	-37,46
256,832	-31,5
257,206	-28,48
257,581	-26,7
257,955	-25,56
258,329	-24,92
258,703	-24,04
259,077	-22,52
259,451	-21,33
259,825	-20,66
260,199	-19,62
260,572	-19,62
260,946	-20,02
261,32	-20,44
261,694	-20,4
262,068	-20,45
262,441	-19,78
262,815	-18,91
263,189	-18,22
263,562	-17,93
263,936	-19,08
264,309	-20,42
264,683	-22,47
265,056	-23,5
265,43	-22,98
265,803	-22,04
266,176	-20,5
266,55	-19,35
266,923	-18,99
267,296	-18,81
267,67	-18,24
268,043	-18,23
268,416	-17,41
268,789	-15,55
269,162	-13,54
269,535	-12,21
269,908	-11,13
270,281	-11,1
270,654	-11,43
271,027	-11,55
271,4	-11,94
271,773	-12,2
272,146	-12,92
272,519	-13,14
272,891	-12,95
273,264	-13,11
273,637	-12,94
274,01	-13,02
274,382	-13,32
274,755	-13,44
275,127	-13,36
275,5	-13,14
275,872	-12,6
276,245	-12,34
276,617	-12,71
276,99	-13,8
277,362	-14,54
277,734	-14,45
278,107	-13,88
278,479	-12,31
278,851	-11,19
279,223	-10,43
279,596	-9,9
279,968	-8,8
280,34	-8,4
280,712	-8,48
281,084	-8,55
281,456	-8,7
281,828	-8,63
282,2	-8,44
282,572	-7,82
282,944	-7,16
283,315	-6,8
283,687	-6,52
284,059	-6,04
284,431	-5,69
284,802	-5,2
285,174	-4,99
285,546	-4,98
285,917	-5,03
286,289	-5,63
286,66	-5,78
287,032	-5,6
287,403	-5,63
287,775	-5,77
288,146	-5,87
288,518	-5,85
288,889	-5,86
289,26	-5,66
289,632	-5,47
290,003	-5,51
290,374	-5,95
290,745	-6,21
291,116	-6,13
291,487	-6,1
291,858	-6,02
292,229	-5,82
292,6	-5,35
292,971	-4,9
293,342	-4,23
293,713	-3,5
294,084	-2,99
294,455	-2,72
294,826	-2,67
295,196	-2,35
295,567	-2,13
295,938	-1,91
296,308	-1,85
296,679	-1,65
297,05	-1,51
297,42	-1,44
297,791	-1,15
298,161	-0,78
298,532	-0,71
298,902	-0,72
299,272	-0,58
299,643	-0,48
300,013	-0,52
300,383	-0,52
300,754	-0,37
301,124	-0,72
301,494	-1,14
301,864	-1,06
302,234	-0,95
302,604	-0,73
302,974	-0,58
303,344	-0,55
303,714	-0,3
304,084	0,13
304,454	0,63
304,824	1,01
305,194	1,24
305,563	1,55
305,933	1,85
306,303	2,48
306,673	3,04
307,042	3,26
307,412	3,3
307,781	3,61
308,151	3,92
308,521	4,11
308,89	4,44
309,259	4,93
309,629	5,02
309,998	4,98
310,368	5,2
310,737	5,35
311,106	5,43
311,475	5,49
311,845	5,46
312,214	5,29
312,583	5,1
312,952	5,19
313,321	5,19
313,69	5,08
314,059	4,9
314,428	4,99
314,797	5,19
315,166	5,43
315,535	5,51
315,904	5,46
316,272	5,33
316,641	5,47
317,01	5,32
317,379	5,52
317,747	5,62
318,116	5,58
318,484	5,65
318,853	5,71
319,221	5,78
319,59	6,01
319,958	6,36
320,327	6,71
320,695	6,94
321,063	7,22
321,432	7,47
321,8	7,59
322,168	7,44
322,536	7,39
322,905	7,46
323,273	7,63
323,641	7,72
324,009	7,92
324,377	7,97
324,745	8,12
325,113	8,18
325,481	8,36
325,849	8,45
326,216	8,46
326,584	8,51
326,952	8,65
327,32	8,81
327,687	8,91
328,055	9,08
328,423	9,14
328,79	9,23
329,158	9,32
329,525	9,34
329,893	9,41
330,26	9,56
330,628	9,66
330,995	9,8
331,362	10,07
331,73	10,33
332,097	10,43
332,464	10,54
332,831	10,6
333,199	10,85
333,566	11,08
333,933	11,4
334,3	11,72
334,667	11,95
335,034	11,88
335,401	11,88
335,768	11,86
336,135	12,01
336,502	12,1
336,868	12,3
337,235	12,59
337,602	12,83
337,969	12,97
338,335	13,08
338,702	13,02
339,069	12,97
339,435	12,98
339,802	13,1
340,168	13,25
340,535	13,27
340,901	13,25
341,267	13,17
341,634	13,13
342	13,11
342,366	13,1
342,733	13,31
343,099	13,5
343,465	13,56
343,831	13,52
344,197	13,64
344,563	13,66
344,929	13,63
345,295	13,52
345,661	13,58
346,027	13,61
346,393	13,8
346,759	13,89
347,125	13,99
347,491	14,08
347,856	14,15
348,222	14,28
348,588	14,36
348,953	14,48
349,319	14,55
349,684	14,58
350,05	14,56
350,415	14,51
350,781	14,51
351,146	14,63
351,512	14,76
351,877	14,83
352,242	14,88
352,608	15
352,973	15,14
353,338	15,14
353,703	15,13
354,068	15,11
354,433	15,19
354,798	15,22
355,164	15,24
355,528	15,23
355,893	15,3
356,258	15,3
356,623	15,32
356,988	15,4
357,353	15,46
357,718	15,6
358,082	15,72
358,447	15,74
358,812	15,78
359,176	15,91
359,541	16,01
359,905	16,11
360,27	16,09
360,634	16,13
360,999	16,24
361,363	16,39
361,728	16,52
362,092	16,61
362,456	16,7
362,821	16,74
363,185	16,84
363,549	16,89
363,913	17,01
364,277	17,09
364,641	17,2
365,005	17,35
365,369	17,37
365,733	17,48
366,097	17,62
366,461	17,66
366,825	17,63
367,189	17,59
367,553	17,68
367,916	17,83
368,28	17,97
368,644	18,03
369,007	18,14
369,371	18,17
369,734	18,22
370,098	18,31
370,461	18,42
370,825	18,52
371,188	18,61
371,552	18,7
371,915	18,84
372,278	18,9
372,642	19
373,005	19,11
373,368	19,16
373,731	19,26
374,094	19,36
374,457	19,5
374,82	19,58
375,183	19,65
375,546	19,74
375,909	19,83
376,272	19,92
376,635	19,94
376,998	20,06
377,361	20,13
377,723	20,16
378,086	20,19
378,449	20,19
378,811	20,24
379,174	20,26
379,537	20,32
379,899	20,39
380,262	20,36
380,624	20,4
380,987	20,48
381,349	20,52
381,711	20,59
382,074	20,62
382,436	20,74
382,798	20,93
383,16	20,95
383,522	20,93
383,884	20,91
384,247	20,98
384,609	21,01
384,971	21,08
385,333	21,13
385,695	21,24
386,056	21,26
386,418	21,32
386,78	21,43
387,142	21,44
387,504	21,41
387,865	21,41
388,227	21,47
388,589	21,47
388,95	21,48
389,312	21,52
389,673	21,52
390,035	21,52
390,396	21,45
390,758	21,47
391,119	21,53
391,48	21,61
391,842	21,58
392,203	21,6
392,564	21,6
392,925	21,64
393,286	21,64
393,648	21,7
394,009	21,75
394,37	21,77
394,731	21,8
395,092	21,88
395,452	21,96
395,813	21,95
396,174	22
396,535	22,03
396,896	22,03
397,257	22,07
397,617	22,1
397,978	22,16
398,338	22,2
398,699	22,25
399,06	22,32
399,42	22,36
399,781	22,38
400,141	22,41
400,501	22,41
400,862	22,43
401,222	22,44
401,582	22,4
401,943	22,37
402,303	22,35
402,663	22,36
403,023	22,35
403,383	22,38
403,743	22,39
404,103	22,4
404,463	22,46
404,823	22,49
405,183	22,52
405,543	22,53
405,903	22,58
406,262	22,55
406,622	22,52
406,982	22,55
407,342	22,57
407,701	22,6
408,061	22,64
408,42	22,64
408,78	22,68
409,139	22,71
409,499	22,73
409,858	22,74
410,217	22,74
410,577	22,77
410,936	22,78
411,295	22,82
411,655	22,81
412,014	22,83
412,373	22,82
412,732	22,8
413,091	22,75
413,45	22,71
413,809	22,7
414,168	22,67
414,527	22,61
414,886	22,59
415,245	22,59
415,603	22,52
415,962	22,48
416,321	22,46
416,679	22,44
417,038	22,4
417,397	22,4
417,755	22,36
418,114	22,33
418,472	22,31
418,831	22,29
419,189	22,3
419,547	22,28
419,906	22,28
420,264	22,27
420,622	22,26
420,981	22,24
421,339	22,24
421,697	22,22
422,055	22,25
422,413	22,25
422,771	22,25
423,129	22,28
423,487	22,32
423,845	22,35
424,203	22,39
424,56	22,41
424,918	22,45
425,276	22,49
425,634	22,54
425,991	22,55
426,349	22,58
426,707	22,61
427,064	22,64
427,422	22,66
427,779	22,73
428,137	22,8
428,494	22,88
428,851	22,97
429,209	23,04
429,566	23,08
429,923	23,1
430,28	23,13
430,637	23,18
430,995	23,14
431,352	23,16
431,709	23,16
432,066	23,2
432,423	23,18
432,78	23,2
433,137	23,21
433,493	23,22
433,85	23,24
434,207	23,19
434,564	23,2
434,92	23,22
435,277	23,19
435,634	23,16
435,99	23,12
436,347	23,05
436,703	23,05
437,06	23,06
437,416	23,07
437,773	23,06
438,129	23,04
438,485	23,06
438,841	23,02
439,198	23,03
439,554	23,03
439,91	23,05
440,266	23,04
440,622	23,03
440,978	23,04
441,334	23,01
441,69	23,01
442,046	23
442,402	22,98
442,758	22,98
443,113	23
443,469	23,02
443,825	23,05
444,181	23,05
444,536	23,05
444,892	23,05
445,247	23,06
445,603	23,06
445,958	23,08
446,314	23,1
446,669	23,09
447,025	23,09
447,38	23,08
447,735	23,09
448,09	23,09
448,446	23,12
448,801	23,15
449,156	23,18
449,511	23,2
449,866	23,22
450,221	23,23
450,576	23,26
450,931	23,29
451,286	23,33
451,641	23,35
451,995	23,37
452,35	23,41
452,705	23,42
453,06	23,44
453,414	23,44
453,769	23,45
454,123	23,47
454,478	23,47
454,832	23,48
455,187	23,47
455,541	23,5
455,896	23,47
456,25	23,46
456,604	23,49
456,958	23,48
457,313	23,48
457,667	23,48
458,021	23,47
458,375	23,49
458,729	23,51
459,083	23,53
459,437	23,54
459,791	23,52
460,145	23,53
460,499	23,51
460,852	23,52
461,206	23,53
461,56	23,54
461,914	23,53
462,267	23,53
462,621	23,55
462,974	23,55
463,328	23,58
463,681	23,62
464,035	23,61
464,388	23,64
464,742	23,65
465,095	23,66
465,448	23,7
465,801	23,68
466,155	23,67
466,508	23,68
466,861	23,67
467,214	23,71
467,567	23,71
467,92	23,72
468,273	23,72
468,626	23,7
468,979	23,71
469,332	23,73
469,684	23,75
470,037	23,77
470,39	23,75
470,743	23,75
471,095	23,75
471,448	23,78
471,8	23,78
472,153	23,82
472,505	23,84
472,858	23,83
473,21	23,85
473,562	23,87
473,915	23,86
474,267	23,87
474,619	23,88
474,971	23,87
475,324	23,88
475,676	23,9
476,028	23,95
476,38	23,95
476,732	23,96
477,084	23,96
477,436	23,94
477,787	23,96
478,139	23,97
478,491	23,97
478,843	23,95
479,195	23,94
479,546	23,91
479,898	23,88
480,249	23,89
480,601	23,92
480,952	23,93
481,304	23,9
481,655	23,87
482,007	23,86
482,358	23,86
482,709	23,85
483,061	23,83
483,412	23,8
483,763	23,78
484,114	23,77
484,465	23,75
484,816	23,74
485,167	23,74
485,518	23,74
485,869	23,74
486,22	23,74
486,571	23,75
486,922	23,75
487,272	23,76
487,623	23,75
487,974	23,71
488,324	23,67
488,675	23,69
489,025	23,69
489,376	23,7
489,726	23,7
490,077	23,72
490,427	23,75
490,778	23,77
491,128	23,81
491,478	23,83
491,828	23,87
492,179	23,89
492,529	23,91
492,879	23,93
493,229	23,93
493,579	23,93
493,929	23,92
494,279	23,95
494,629	23,96
494,979	23,98
495,328	24,01
495,678	24,04
496,028	24,05
496,378	24,11
496,727	24,15
497,077	24,18
497,426	24,19
497,776	24,19
498,125	24,21
498,475	24,19
498,824	24,21
499,174	24,2
499,523	24,22
499,872	24,21
500,221	24,22
500,571	24,25
500,92	24,27
501,269	24,31
501,618	24,3
501,967	24,31
502,316	24,31
502,665	24,32
503,014	24,32
503,363	24,33
503,711	24,31
504,06	24,3
504,409	24,3
504,758	24,28
505,106	24,27
505,455	24,28
505,803	24,29
506,152	24,27
506,5	24,28
506,849	24,28
507,197	24,3
507,546	24,32
507,894	24,31
508,242	24,31
508,59	24,3
508,939	24,3
509,287	24,29
509,635	24,28
509,983	24,3
510,331	24,29
510,679	24,29
511,027	24,3
511,375	24,3
511,723	24,32
512,07	24,32
512,418	24,33
512,766	24,35
513,114	24,37
513,461	24,4
513,809	24,41
514,156	24,42
514,504	24,41
514,851	24,4
515,199	24,41
515,546	24,39
515,893	24,39
516,241	24,4
516,588	24,41
516,935	24,43
517,282	24,44
517,63	24,47
517,977	24,49
518,324	24,5
518,671	24,51
519,018	24,5
519,365	24,5
519,711	24,5
520,058	24,5
520,405	24,48
520,752	24,48
521,099	24,48
521,445	24,48
521,792	24,48
522,138	24,46
522,485	24,47
522,832	24,49
523,178	24,49
523,524	24,46
523,871	24,46
524,217	24,46
524,563	24,46
524,91	24,43
525,256	24,44
525,602	24,45
525,948	24,46
526,294	24,46
526,64	24,45
526,986	24,42
527,332	24,41
527,678	24,4
528,024	24,4
528,37	24,41
528,716	24,41
529,061	24,42
529,407	24,43
529,753	24,42
530,098	24,42
530,444	24,43
530,789	24,43
531,135	24,44
531,48	24,44
531,826	24,44
532,171	24,45
532,516	24,44
532,862	24,44
533,207	24,42
533,552	24,42
533,897	24,44
534,242	24,47
534,587	24,48
534,932	24,51
535,277	24,53
535,622	24,51
535,967	24,51
536,312	24,53
536,657	24,52
537,001	24,54
537,346	24,57
537,691	24,55
538,035	24,55
538,38	24,54
538,724	24,51
539,069	24,52
539,413	24,53
539,758	24,52
540,102	24,52
540,446	24,52
540,791	24,52
541,135	24,52
541,479	24,52
541,823	24,52
542,167	24,49
542,512	24,51
542,856	24,51
543,2	24,5
543,543	24,48
543,887	24,49
544,231	24,51
544,575	24,48
544,919	24,5
545,262	24,52
545,606	24,53
545,95	24,57
546,293	24,57
546,637	24,57
546,98	24,62
547,324	24,62
547,667	24,63
548,011	24,64
548,354	24,65
548,697	24,65
549,04	24,68
549,384	24,7
549,727	24,68
550,07	24,71
550,413	24,77
550,756	24,8
551,099	24,8
551,442	24,8
551,785	24,84
552,128	24,84
552,47	24,85
552,813	24,87
553,156	24,83
553,499	24,81
553,841	24,8
554,184	24,78
554,526	24,76
554,869	24,73
555,211	24,71
555,554	24,71
555,896	24,71
556,238	24,71
556,581	24,71
556,923	24,7
557,265	24,7
557,607	24,66
557,949	24,65
558,291	24,62
558,633	24,62
558,975	24,56
559,317	24,57
559,659	24,52
560,001	24,48
560,343	24,5
560,685	24,51
561,026	24,52
561,368	24,5
561,71	24,5
562,051	24,53
562,393	24,54
562,734	24,52
563,076	24,49
563,417	24,4
563,759	24,4
564,1	24,35
564,441	24,32
564,782	24,31
565,124	24,28
565,465	24,25
565,806	24,22
566,147	24,23
566,488	24,22
566,829	24,21
567,17	24,2
567,511	24,19
567,851	24,18
568,192	24,17
568,533	24,15
568,874	24,14
569,214	24,11
569,555	24,08
569,895	24,08
570,236	24,08
570,576	24,12
570,917	24,1
571,257	24,11
571,598	24,12
571,938	24,09
572,278	24,08
572,618	24,08
572,959	24,06
573,299	24,05
573,639	24,03
573,979	24,03
574,319	24,02
574,659	24,01
574,999	23,97
575,339	23,97
575,678	23,97
576,018	23,92
576,358	23,93
576,698	23,93
577,037	23,91
577,377	23,87
577,716	23,85
578,056	23,82
578,395	23,78
578,735	23,73
579,074	23,73
579,413	23,72
579,753	23,7
580,092	23,71
580,431	23,7
580,77	23,69
581,109	23,68
581,448	23,66
581,787	23,61
582,126	23,64
582,465	23,62
582,804	23,59
583,143	23,65
583,482	23,66
583,82	23,63
584,159	23,64
584,498	23,65
584,836	23,67
585,175	23,68
585,514	23,68
585,852	23,7
586,19	23,73
586,529	23,71
586,867	23,71
587,205	23,71
587,544	23,75
587,882	23,77
588,22	23,75
588,558	23,79
588,896	23,85
589,234	23,85
589,572	23,83
589,91	23,84
590,248	23,82
590,586	23,83
590,924	23,84
591,262	23,85
591,599	23,85
591,937	23,87
592,275	23,85
592,612	23,87
592,95	23,87
593,287	23,91
593,625	23,94
593,962	23,97
594,299	23,99
594,637	24
594,974	23,99
595,311	24,03
595,648	24,02
595,985	23,98
596,322	23,97
596,659	23,98
596,996	24,01
597,333	24
597,67	23,97
598,007	23,99
598,344	24,02
598,681	24,03
599,017	24,02
599,354	24,04
599,691	24,08
600,027	24,07
600,364	24,03
600,7	24,05
601,037	24,06
601,373	24,08
601,71	24,08
602,046	24,13
602,382	24,11
602,718	24,13
603,054	24,13
603,391	24,15
603,727	24,17
604,063	24,18
604,399	24,17
604,735	24,19
605,071	24,19
605,406	24,19
605,742	24,22
606,078	24,22
606,414	24,24
606,749	24,21
607,085	24,25
607,421	24,26
607,756	24,24
608,092	24,21
608,427	24,18
608,762	24,18
609,098	24,16
609,433	24,16
609,768	24,13
610,104	24,13
610,439	24,13
610,774	24,1
611,109	24,05
611,444	24,09
611,779	24,1
612,114	24,11
612,449	24,09
612,784	24,05
613,118	24,03
613,453	24,02
613,788	24,04
614,123	23,95
614,457	23,9
614,792	23,91
615,126	23,92
615,461	23,9
615,795	23,87
616,13	23,85
616,464	23,86
616,798	23,88
617,132	23,94
617,467	23,94
617,801	23,94
618,135	23,99
618,469	23,93
618,803	23,93
619,137	23,93
619,471	23,93
619,805	23,9
620,139	23,9
620,472	23,9
620,806	23,91
621,14	23,96
621,473	23,97
621,807	23,98
622,141	23,97
622,474	24
622,808	24,03
623,141	24,01
623,474	24,04
623,808	24,04
624,141	23,97
624,474	23,98
624,807	23,96
625,141	23,9
625,474	23,94
625,807	23,94
626,14	23,88
626,473	23,87
626,806	23,93
627,138	23,97
627,471	23,95
627,804	23,9
628,137	23,92
628,469	23,92
628,802	23,96
629,135	23,99
629,467	24,04
629,8	24,01
630,132	24
630,465	23,98
630,797	24,03
631,129	24,06
631,461	24,05
631,794	24,11
632,126	24,13
632,458	24,14
632,79	24,13
633,122	24,18
633,454	24,21
633,786	24,17
634,118	24,17
634,45	24,22
634,781	24,21
635,113	24,24
635,445	24,27
635,777	24,23
636,108	24,17
636,44	24,13
636,771	24,13
637,103	24,15
637,434	24,13
637,765	24,07
638,097	24,08
638,428	24,04
638,759	23,97
639,09	23,99
639,422	23,94
639,753	23,93
640,084	23,92
640,415	23,9
640,746	23,95
641,077	23,9
641,407	23,87
641,738	23,93
642,069	23,85
642,4	23,79
642,73	23,75
643,061	23,76
643,392	23,76
643,722	23,79
644,053	23,81
644,383	23,78
644,713	23,78
645,044	23,77
645,374	23,87
645,704	23,9
646,034	23,85
646,365	23,94
646,695	24
647,025	24,02
647,355	24,05
647,685	24,06
648,015	24,04
