Data from zc_m4_p3_Reflection_5,txt Node
Date: Wed Nov 25 17:02:24 GMT-03:00 2020
User: Darío
Spectrometer: USB2E3644
Trigger mode: 4
Integration Time (sec): 9,000000E-2
Scans to average: 10
Electric dark correction enabled: true
Nonlinearity correction enabled: false
Boxcar width: 10
XAxis mode: Wavelengths
Number of Pixels in Spectrum: 2048
>>>>>Begin Spectral Data<<<<<
178,315	115,35
178,696	121,35
179,076	152,27
179,457	142,76
179,838	65,55
180,218	113,92
180,599	204,79
180,979	64,52
181,36	4680
181,74	900
182,121	160,31
182,501	126,08
182,881	96,91
183,262	79,94
183,642	68,65
184,022	67,35
184,402	69,96
184,783	75,6
185,163	84,18
185,543	88,42
185,923	90,08
186,303	95,08
186,683	96,44
187,063	97,34
187,443	95,21
187,823	92,23
188,203	95
188,583	96,05
188,963	94,21
189,343	93,03
189,723	91,27
190,102	93,36
190,482	96,23
190,862	100,47
191,242	106,24
191,621	110,94
192,001	114,08
192,38	116,32
192,76	117,04
193,14	115,47
193,519	118,26
193,898	121,57
194,278	121,71
194,657	121,03
195,037	121,98
195,416	123,46
195,795	122,06
196,175	121,04
196,554	123,65
196,933	124,81
197,312	124,39
197,692	127,49
198,071	126,88
198,45	125,26
198,829	124,09
199,208	120,51
199,587	118,62
199,966	117,01
200,345	116,09
200,724	117,6
201,103	118,91
201,482	117,75
201,86	118,34
202,239	119,41
202,618	119,75
202,997	119,12
203,375	120,16
203,754	124,26
204,133	125,03
204,511	123,59
204,89	121,67
205,269	123,56
205,647	124,17
206,026	128,02
206,404	128,07
206,782	126,29
207,161	127,68
207,539	127,59
207,918	129,08
208,296	130,36
208,674	129,19
209,052	127,95
209,431	129,37
209,809	126,77
210,187	124,03
210,565	125,44
210,943	126,39
211,321	127,46
211,699	128,58
212,077	130,72
212,455	130,77
212,833	132,81
213,211	131,95
213,589	131,04
213,967	129,77
214,345	128,14
214,722	129,5
215,1	127,4
215,478	126,57
215,855	126,72
216,233	128,61
216,611	130,6
216,988	133,97
217,366	132,96
217,743	132,6
218,121	133,31
218,498	134,61
218,876	136,56
219,253	137,07
219,631	135,44
220,008	135,56
220,385	139,97
220,762	141,38
221,14	139,56
221,517	137,32
221,894	136,63
222,271	141,34
222,648	144,8
223,025	149,52
223,402	158,11
223,78	160,33
224,157	157,97
224,533	160,33
224,91	161,53
225,287	158,91
225,664	158,96
226,041	157,04
226,418	153,98
226,795	156,97
227,171	155,13
227,548	152,79
227,925	151,29
228,301	146,82
228,678	148,76
229,055	154,15
229,431	158,32
229,808	157,72
230,184	156,6
230,561	160,84
230,937	162,89
231,313	159,71
231,69	161,55
232,066	163,03
232,442	163,33
232,819	160,64
233,195	161,87
233,571	166,58
233,947	174,65
234,323	174,05
234,699	174,27
235,075	179,32
235,451	187,14
235,827	195,93
236,203	205,21
236,579	207,89
236,955	218,23
237,331	233,97
237,707	261,82
238,083	310,59
238,459	372,31
238,834	539,06
239,21	931,94
239,586	3897,35
239,961	-2591,72
240,337	-1682,26
240,713	-757,02
241,088	-558,97
241,464	-505,01
241,839	-431,27
242,215	-300,65
242,59	-232,08
242,965	-162,41
243,341	-115,79
243,716	-88,04
244,091	-72,29
244,467	-62,03
244,842	-54,48
245,217	-50,62
245,592	-48,23
245,967	-48,69
246,343	-48,69
246,718	-49,96
247,093	-50,89
247,468	-50,66
247,843	-49,92
248,218	-47,45
248,593	-46,59
248,967	-44,36
249,342	-42,32
249,717	-41,26
250,092	-41,84
250,467	-41,72
250,841	-44,17
251,216	-50,11
251,591	-56,56
251,965	-63,77
252,34	-69,14
252,714	-73,34
253,089	-75,05
253,463	-75,08
253,838	-71,64
254,212	-69,09
254,587	-67,6
254,961	-66
255,335	-64,19
255,71	-57,56
256,084	-47,23
256,458	-39,12
256,832	-33,36
257,206	-30,39
257,581	-28,21
257,955	-27,07
258,329	-26,69
258,703	-25,82
259,077	-24,53
259,451	-23,83
259,825	-23,44
260,199	-23,29
260,572	-23,48
260,946	-24,07
261,32	-24,62
261,694	-24,64
262,068	-24,83
262,441	-24
262,815	-22,62
263,189	-21,75
263,562	-21,48
263,936	-22,77
264,309	-24,13
264,683	-26,21
265,056	-27,42
265,43	-27,88
265,803	-27,27
266,176	-25,95
266,55	-24,86
266,923	-24,06
267,296	-23,16
267,67	-22,15
268,043	-21,61
268,416	-20,71
268,789	-19,01
269,162	-17,06
269,535	-15,58
269,908	-14,53
270,281	-13,74
270,654	-13,63
271,027	-13,7
271,4	-14,16
271,773	-14,18
272,146	-14,49
272,519	-14,58
272,891	-14,78
273,264	-15,48
273,637	-15,89
274,01	-16,37
274,382	-17,11
274,755	-17,54
275,127	-18,18
275,5	-18,52
275,872	-17,98
276,245	-17,48
276,617	-17,79
276,99	-18,72
277,362	-19,55
277,734	-19,6
278,107	-20
278,479	-19,27
278,851	-18,38
279,223	-17,49
279,596	-16,91
279,968	-16,23
280,34	-16,04
280,712	-15,54
281,084	-14,66
281,456	-13,9
281,828	-13,08
282,2	-12,33
282,572	-11,51
282,944	-10,57
283,315	-9,95
283,687	-9,77
284,059	-9,71
284,431	-9,19
284,802	-8,73
285,174	-8,3
285,546	-7,97
285,917	-7,78
286,289	-8
286,66	-8,07
287,032	-7,8
287,403	-7,47
287,775	-7,08
288,146	-6,8
288,518	-6,59
288,889	-6,58
289,26	-6,31
289,632	-6,11
290,003	-5,97
290,374	-6,14
290,745	-6,53
291,116	-6,63
291,487	-6,45
291,858	-6,2
292,229	-6,33
292,6	-6,09
292,971	-5,79
293,342	-5,23
293,713	-4,55
294,084	-4,14
294,455	-3,9
294,826	-3,92
295,196	-3,81
295,567	-3,87
295,938	-3,67
296,308	-3,85
296,679	-3,62
297,05	-3,39
297,42	-3,56
297,791	-3,48
298,161	-3,31
298,532	-2,96
298,902	-2,83
299,272	-2,85
299,643	-2,92
300,013	-2,81
300,383	-2,84
300,754	-2,89
301,124	-3,39
301,494	-3,76
301,864	-3,72
302,234	-3,79
302,604	-3,59
302,974	-3,69
303,344	-3,67
303,714	-3,54
304,084	-3,09
304,454	-2,84
304,824	-3,17
305,194	-3,37
305,563	-3,44
305,933	-3,4
306,303	-3,19
306,673	-2,87
307,042	-2,86
307,412	-2,91
307,781	-2,71
308,151	-2,48
308,521	-2,27
308,89	-1,97
309,259	-1,65
309,629	-1,61
309,998	-1,43
310,368	-1,26
310,737	-1,07
311,106	-1,14
311,475	-1,25
311,845	-1,32
312,214	-1,53
312,583	-1,54
312,952	-1,31
313,321	-1,16
313,69	-1,13
314,059	-1,17
314,428	-1,05
314,797	-0,66
315,166	-0,39
315,535	-0,52
315,904	-0,58
316,272	-0,62
316,641	-0,53
317,01	-0,55
317,379	-0,36
317,747	-0,26
318,116	-0,5
318,484	-0,54
318,853	-0,51
319,221	-0,58
319,59	-0,56
319,958	-0,46
320,327	-0,14
320,695	0,07
321,063	0,11
321,432	0,16
321,8	0,22
322,168	0,1
322,536	-0,01
322,905	-0,16
323,273	-0,11
323,641	-0,02
324,009	0,08
324,377	0,19
324,745	0,23
325,113	0,38
325,481	0,39
325,849	0,45
326,216	0,63
326,584	0,75
326,952	0,95
327,32	1,11
327,687	1,14
328,055	1,03
328,423	1,04
328,79	1,13
329,158	1,09
329,525	1,1
329,893	1,08
330,26	1,19
330,628	1,42
330,995	1,5
331,362	1,52
331,73	1,56
332,097	1,69
332,464	1,58
332,831	1,35
333,199	1,58
333,566	1,82
333,933	1,87
334,3	1,95
334,667	1,96
335,034	1,85
335,401	1,88
335,768	2,02
336,135	2,09
336,502	2,14
336,868	2,24
337,235	2,33
337,602	2,54
337,969	2,59
338,335	2,69
338,702	2,74
339,069	2,82
339,435	2,85
339,802	2,84
340,168	3
340,535	3,11
340,901	3,03
341,267	2,91
341,634	2,89
342	2,91
342,366	2,93
342,733	2,96
343,099	3,13
343,465	3,18
343,831	3,27
344,197	3,29
344,563	3,35
344,929	3,31
345,295	3,19
345,661	3,18
346,027	3,16
346,393	3,24
346,759	3,21
347,125	3,16
347,491	3,25
347,856	3,34
348,222	3,45
348,588	3,52
348,953	3,6
349,319	3,61
349,684	3,65
350,05	3,64
350,415	3,71
350,781	3,76
351,146	3,8
351,512	3,8
351,877	3,81
352,242	3,88
352,608	4,02
352,973	4,13
353,338	4,14
353,703	4,18
354,068	4,19
354,433	4,21
354,798	4,29
355,164	4,26
355,528	4,27
355,893	4,31
356,258	4,31
356,623	4,37
356,988	4,46
357,353	4,53
357,718	4,67
358,082	4,77
358,447	4,8
358,812	4,84
359,176	4,92
359,541	4,99
359,905	5,04
360,27	4,98
360,634	4,98
360,999	5,01
361,363	5,11
361,728	5,21
362,092	5,28
362,456	5,27
362,821	5,28
363,185	5,31
363,549	5,32
363,913	5,32
364,277	5,31
364,641	5,32
365,005	5,34
365,369	5,37
365,733	5,43
366,097	5,55
366,461	5,6
366,825	5,63
367,189	5,72
367,553	5,82
367,916	5,95
368,28	6,01
368,644	6,12
369,007	6,2
369,371	6,22
369,734	6,35
370,098	6,55
370,461	6,68
370,825	6,81
371,188	6,87
371,552	7,04
371,915	7,18
372,278	7,28
372,642	7,4
373,005	7,45
373,368	7,45
373,731	7,45
374,094	7,51
374,457	7,55
374,82	7,6
375,183	7,68
375,546	7,75
375,909	7,84
376,272	7,93
376,635	8,01
376,998	8,1
377,361	8,15
377,723	8,16
378,086	8,2
378,449	8,24
378,811	8,3
379,174	8,28
379,537	8,29
379,899	8,33
380,262	8,34
380,624	8,39
380,987	8,47
381,349	8,49
381,711	8,54
382,074	8,61
382,436	8,66
382,798	8,77
383,16	8,78
383,522	8,82
383,884	8,82
384,247	8,81
384,609	8,84
384,971	8,87
385,333	8,9
385,695	8,92
386,056	8,87
386,418	8,88
386,78	8,97
387,142	9
387,504	9
387,865	8,98
388,227	9,01
388,589	9,05
388,95	9,1
389,312	9,13
389,673	9,15
390,035	9,15
390,396	9,07
390,758	9,1
391,119	9,13
391,48	9,13
391,842	9,1
392,203	9,08
392,564	9,09
392,925	9,1
393,286	9,1
393,648	9,12
394,009	9,13
394,37	9,12
394,731	9,15
395,092	9,15
395,452	9,17
395,813	9,2
396,174	9,21
396,535	9,21
396,896	9,24
397,257	9,27
397,617	9,28
397,978	9,36
398,338	9,35
398,699	9,38
399,06	9,41
399,42	9,43
399,781	9,46
400,141	9,46
400,501	9,47
400,862	9,52
401,222	9,52
401,582	9,51
401,943	9,49
402,303	9,5
402,663	9,49
403,023	9,5
403,383	9,49
403,743	9,5
404,103	9,51
404,463	9,48
404,823	9,47
405,183	9,49
405,543	9,45
405,903	9,46
406,262	9,41
406,622	9,37
406,982	9,37
407,342	9,36
407,701	9,38
408,061	9,4
408,42	9,37
408,78	9,4
409,139	9,44
409,499	9,45
409,858	9,45
410,217	9,48
410,577	9,49
410,936	9,48
411,295	9,47
411,655	9,44
412,014	9,43
412,373	9,4
412,732	9,37
413,091	9,32
413,45	9,28
413,809	9,26
414,168	9,21
414,527	9,19
414,886	9,15
415,245	9,11
415,603	9,06
415,962	9,02
416,321	8,99
416,679	8,93
417,038	8,88
417,397	8,82
417,755	8,77
418,114	8,72
418,472	8,69
418,831	8,67
419,189	8,67
419,547	8,65
419,906	8,63
420,264	8,62
420,622	8,62
420,981	8,61
421,339	8,6
421,697	8,6
422,055	8,61
422,413	8,62
422,771	8,63
423,129	8,63
423,487	8,66
423,845	8,69
424,203	8,73
424,56	8,77
424,918	8,82
425,276	8,88
425,634	8,93
425,991	8,98
426,349	9
426,707	9,04
427,064	9,1
427,422	9,13
427,779	9,18
428,137	9,23
428,494	9,28
428,851	9,34
429,209	9,38
429,566	9,4
429,923	9,39
430,28	9,41
430,637	9,44
430,995	9,42
431,352	9,41
431,709	9,4
432,066	9,41
432,423	9,41
432,78	9,42
433,137	9,43
433,493	9,41
433,85	9,44
434,207	9,41
434,564	9,39
434,92	9,37
435,277	9,36
435,634	9,35
435,99	9,33
436,347	9,3
436,703	9,3
437,06	9,3
437,416	9,29
437,773	9,27
438,129	9,25
438,485	9,25
438,841	9,25
439,198	9,24
439,554	9,22
439,91	9,22
440,266	9,2
440,622	9,19
440,978	9,18
441,334	9,15
441,69	9,15
442,046	9,14
442,402	9,14
442,758	9,14
443,113	9,13
443,469	9,13
443,825	9,15
444,181	9,14
444,536	9,14
444,892	9,14
445,247	9,16
445,603	9,18
445,958	9,18
446,314	9,19
446,669	9,2
447,025	9,21
447,38	9,22
447,735	9,24
448,09	9,26
448,446	9,28
448,801	9,31
449,156	9,32
449,511	9,35
449,866	9,4
450,221	9,42
450,576	9,48
450,931	9,51
451,286	9,55
451,641	9,59
451,995	9,63
452,35	9,68
452,705	9,68
453,06	9,64
453,414	9,65
453,769	9,64
454,123	9,64
454,478	9,66
454,832	9,65
455,187	9,63
455,541	9,63
455,896	9,59
456,25	9,55
456,604	9,55
456,958	9,52
457,313	9,49
457,667	9,47
458,021	9,45
458,375	9,46
458,729	9,47
459,083	9,48
459,437	9,49
459,791	9,49
460,145	9,51
460,499	9,53
460,852	9,53
461,206	9,54
461,56	9,53
461,914	9,53
462,267	9,54
462,621	9,55
462,974	9,56
463,328	9,59
463,681	9,62
464,035	9,64
464,388	9,66
464,742	9,68
465,095	9,7
465,448	9,73
465,801	9,72
466,155	9,7
466,508	9,71
466,861	9,69
467,214	9,68
467,567	9,68
467,92	9,68
468,273	9,68
468,626	9,69
468,979	9,68
469,332	9,67
469,684	9,67
470,037	9,69
470,39	9,69
470,743	9,7
471,095	9,73
471,448	9,74
471,8	9,76
472,153	9,78
472,505	9,8
472,858	9,79
473,21	9,81
473,562	9,82
473,915	9,81
474,267	9,83
474,619	9,82
474,971	9,81
475,324	9,82
475,676	9,84
476,028	9,84
476,38	9,88
476,732	9,89
477,084	9,9
477,436	9,88
477,787	9,85
478,139	9,85
478,491	9,83
478,843	9,81
479,195	9,79
479,546	9,75
479,898	9,69
480,249	9,64
480,601	9,59
480,952	9,54
481,304	9,51
481,655	9,49
482,007	9,48
482,358	9,47
482,709	9,47
483,061	9,45
483,412	9,45
483,763	9,42
484,114	9,41
484,465	9,4
484,816	9,4
485,167	9,4
485,518	9,4
485,869	9,39
486,22	9,4
486,571	9,41
486,922	9,42
487,272	9,44
487,623	9,45
487,974	9,46
488,324	9,48
488,675	9,5
489,025	9,5
489,376	9,51
489,726	9,52
490,077	9,54
490,427	9,56
490,778	9,56
491,128	9,59
491,478	9,61
491,828	9,65
492,179	9,67
492,529	9,69
492,879	9,71
493,229	9,72
493,579	9,72
493,929	9,72
494,279	9,71
494,629	9,7
494,979	9,74
495,328	9,76
495,678	9,8
496,028	9,84
496,378	9,88
496,727	9,92
497,077	9,96
497,426	9,97
497,776	9,96
498,125	9,97
498,475	9,98
498,824	9,97
499,174	9,96
499,523	9,96
499,872	9,96
500,221	9,95
500,571	9,97
500,92	9,99
501,269	10,01
501,618	10,02
501,967	10,04
502,316	10,04
502,665	10,06
503,014	10,08
503,363	10,09
503,711	10,11
504,06	10,09
504,409	10,07
504,758	10,05
505,106	10,05
505,455	10,06
505,803	10,04
506,152	10,05
506,5	10,04
506,849	10,05
507,197	10,07
507,546	10,06
507,894	10,07
508,242	10,06
508,59	10,05
508,939	10,05
509,287	10,05
509,635	10,05
509,983	10,06
510,331	10,06
510,679	10,05
511,027	10,06
511,375	10,07
511,723	10,1
512,07	10,11
512,418	10,13
512,766	10,14
513,114	10,18
513,461	10,2
513,809	10,22
514,156	10,23
514,504	10,23
514,851	10,23
515,199	10,21
515,546	10,23
515,893	10,22
516,241	10,22
516,588	10,21
516,935	10,22
517,282	10,2
517,63	10,2
517,977	10,22
518,324	10,22
518,671	10,22
519,018	10,21
519,365	10,23
519,711	10,25
520,058	10,25
520,405	10,24
520,752	10,24
521,099	10,25
521,445	10,28
521,792	10,28
522,138	10,29
522,485	10,3
522,832	10,31
523,178	10,33
523,524	10,35
523,871	10,35
524,217	10,36
524,563	10,35
524,91	10,3
525,256	10,26
525,602	10,24
525,948	10,21
526,294	10,19
526,64	10,16
526,986	10,14
527,332	10,13
527,678	10,13
528,024	10,12
528,37	10,13
528,716	10,11
529,061	10,11
529,407	10,1
529,753	10,11
530,098	10,1
530,444	10,09
530,789	10,09
531,135	10,1
531,48	10,09
531,826	10,1
532,171	10,14
532,516	10,16
532,862	10,17
533,207	10,2
533,552	10,22
533,897	10,25
534,242	10,26
534,587	10,27
534,932	10,29
535,277	10,3
535,622	10,28
535,967	10,29
536,312	10,31
536,657	10,32
537,001	10,34
537,346	10,35
537,691	10,36
538,035	10,35
538,38	10,33
538,724	10,32
539,069	10,32
539,413	10,31
539,758	10,3
540,102	10,29
540,446	10,28
540,791	10,29
541,135	10,29
541,479	10,3
541,823	10,3
542,167	10,28
542,512	10,29
542,856	10,28
543,2	10,28
543,543	10,27
543,887	10,28
544,231	10,29
544,575	10,3
544,919	10,3
545,262	10,34
545,606	10,38
545,95	10,41
546,293	10,43
546,637	10,45
546,98	10,48
547,324	10,49
547,667	10,5
548,011	10,5
548,354	10,49
548,697	10,48
549,04	10,49
549,384	10,52
549,727	10,51
550,07	10,54
550,413	10,56
550,756	10,56
551,099	10,55
551,442	10,52
551,785	10,51
552,128	10,5
552,47	10,47
552,813	10,47
553,156	10,45
553,499	10,43
553,841	10,4
554,184	10,38
554,526	10,38
554,869	10,36
555,211	10,36
555,554	10,36
555,896	10,38
556,238	10,36
556,581	10,35
556,923	10,35
557,265	10,32
557,607	10,28
557,949	10,29
558,291	10,29
558,633	10,27
558,975	10,24
559,317	10,23
559,659	10,2
560,001	10,19
560,343	10,17
560,685	10,15
561,026	10,14
561,368	10,15
561,71	10,13
562,051	10,12
562,393	10,15
562,734	10,14
563,076	10,1
563,417	10,09
563,759	10,1
564,1	10,09
564,441	10,09
564,782	10,08
565,124	10,04
565,465	10,04
565,806	10,04
566,147	10,05
566,488	10,05
566,829	10,06
567,17	10,04
567,511	10,03
567,851	10,04
568,192	10,01
568,533	9,96
568,874	9,97
569,214	9,97
569,555	9,93
569,895	9,93
570,236	9,91
570,576	9,91
570,917	9,87
571,257	9,85
571,598	9,85
571,938	9,84
572,278	9,83
572,618	9,82
572,959	9,83
573,299	9,81
573,639	9,8
573,979	9,79
574,319	9,77
574,659	9,75
574,999	9,73
575,339	9,73
575,678	9,72
576,018	9,67
576,358	9,63
576,698	9,61
577,037	9,57
577,377	9,58
577,716	9,54
578,056	9,54
578,395	9,53
578,735	9,51
579,074	9,51
579,413	9,5
579,753	9,46
580,092	9,43
580,431	9,44
580,77	9,42
581,109	9,42
581,448	9,39
581,787	9,4
582,126	9,38
582,465	9,4
582,804	9,44
583,143	9,47
583,482	9,48
583,82	9,52
584,159	9,53
584,498	9,53
584,836	9,56
585,175	9,58
585,514	9,58
585,852	9,6
586,19	9,61
586,529	9,64
586,867	9,68
587,205	9,7
587,544	9,69
587,882	9,67
588,22	9,67
588,558	9,7
588,896	9,72
589,234	9,74
589,572	9,71
589,91	9,7
590,248	9,71
590,586	9,71
590,924	9,7
591,262	9,7
591,599	9,7
591,937	9,7
592,275	9,68
592,612	9,66
592,95	9,68
593,287	9,7
593,625	9,7
593,962	9,7
594,299	9,71
594,637	9,76
594,974	9,79
595,311	9,79
595,648	9,79
595,985	9,79
596,322	9,78
596,659	9,81
596,996	9,8
597,333	9,79
597,67	9,81
598,007	9,79
598,344	9,81
598,681	9,85
599,017	9,84
599,354	9,86
599,691	9,9
600,027	9,91
600,364	9,91
600,7	9,9
601,037	9,94
601,373	9,99
601,71	9,98
602,046	10,01
602,382	10,04
602,718	10,06
603,054	10,04
603,391	10,07
603,727	10,07
604,063	10,1
604,399	10,11
604,735	10,11
605,071	10,12
605,406	10,13
605,742	10,13
606,078	10,16
606,414	10,18
606,749	10,18
607,085	10,18
607,421	10,17
607,756	10,19
608,092	10,17
608,427	10,13
608,762	10,13
609,098	10,08
609,433	10,07
609,768	10,05
610,104	10,05
610,439	10,02
610,774	9,99
611,109	9,96
611,444	9,98
611,779	9,99
612,114	9,96
612,449	9,93
612,784	9,89
613,118	9,87
613,453	9,84
613,788	9,83
614,123	9,79
614,457	9,76
614,792	9,73
615,126	9,71
615,461	9,68
615,795	9,66
616,13	9,68
616,464	9,69
616,798	9,72
617,132	9,77
617,467	9,8
617,801	9,83
618,135	9,85
618,469	9,85
618,803	9,84
619,137	9,85
619,471	9,84
619,805	9,85
620,139	9,83
620,472	9,83
620,806	9,82
621,14	9,84
621,473	9,88
621,807	9,89
622,141	9,91
622,474	9,93
622,808	9,94
623,141	9,95
623,474	9,95
623,808	9,98
624,141	9,98
624,474	10,01
624,807	10,01
625,141	10,04
625,474	10,06
625,807	10,1
626,14	10,1
626,473	10,14
626,806	10,17
627,138	10,2
627,471	10,23
627,804	10,25
628,137	10,27
628,469	10,25
628,802	10,27
629,135	10,3
629,467	10,36
629,8	10,37
630,132	10,35
630,465	10,37
630,797	10,33
631,129	10,34
631,461	10,34
631,794	10,38
632,126	10,36
632,458	10,33
632,79	10,29
633,122	10,31
633,454	10,32
633,786	10,32
634,118	10,33
634,45	10,35
634,781	10,37
635,113	10,38
635,445	10,41
635,777	10,4
636,108	10,38
636,44	10,32
636,771	10,36
637,103	10,39
637,434	10,39
637,765	10,44
638,097	10,42
638,428	10,36
638,759	10,31
639,09	10,33
639,422	10,32
639,753	10,34
640,084	10,36
640,415	10,36
640,746	10,37
641,077	10,33
641,407	10,32
641,738	10,33
642,069	10,32
642,4	10,32
642,73	10,3
643,061	10,29
643,392	10,34
643,722	10,32
644,053	10,32
644,383	10,28
644,713	10,23
645,044	10,17
645,374	10,21
645,704	10,26
646,034	10,26
646,365	10,28
646,695	10,29
647,025	10,28
647,355	10,3
647,685	10,28
648,015	10,31
648,344	10,32
648,674	10,28
649,004	10,27
649,334	10,28
649,663	10,33
649,993	10,36
650,323	10,36
650,652	10,37
650,982	10,33
651,311	10,34
651,64	10,37
651,97	10,45
652,299	10,46
652,628	10,46
652,958	10,49
653,287	10,52
653,616	10,49
653,945	10,49
654,274	10,49
654,603	10,52
654,932	10,54
655,261	10,54
655,589	10,56
655,918	10,61
656,247	10,67
656,576	10,69
656,904	10,7
657,233	10,75
657,561	10,76
657,89	10,82
658,218	10,88
658,547	10,91
658,875	10,93
659,203	10,93
659,532	10,88
