Data from zc_m1_p4_Reflection_4,txt Node
Date: Wed Nov 25 16:38:36 GMT-03:00 2020
User: Darío
Spectrometer: USB2E3644
Trigger mode: 4
Integration Time (sec): 9,000000E-2
Scans to average: 10
Electric dark correction enabled: true
Nonlinearity correction enabled: false
Boxcar width: 10
XAxis mode: Wavelengths
Number of Pixels in Spectrum: 2048
>>>>>Begin Spectral Data<<<<<
178,315	73,06
178,696	83,49
179,076	101,06
179,457	138,42
179,838	250
180,218	175
180,599	116,85
180,979	108
181,36	-40,82
181,74	19,09
182,121	49,65
182,501	72,12
182,881	85,8
183,262	88,25
183,642	93,14
184,022	84,3
184,402	88,16
184,783	95,55
185,163	102,68
185,543	107,78
185,923	114,73
186,303	122,65
186,683	126,54
187,063	132,92
187,443	138,18
187,823	138,51
188,203	134,1
188,583	131,35
188,963	129,44
189,343	131,15
189,723	131,97
190,102	133,41
190,482	131,69
190,862	126,62
191,242	122,87
191,621	122,55
192,001	124,22
192,38	122,06
192,76	120,73
193,14	117,53
193,519	114,69
193,898	113,95
194,278	112,82
194,657	111,32
195,037	108,62
195,416	106,98
195,795	107,14
196,175	107,54
196,554	106,74
196,933	106,3
197,312	104,71
197,692	103,49
198,071	104,12
198,45	105,23
198,829	105,89
199,208	108,6
199,587	109,33
199,966	108,84
200,345	109,53
200,724	108,42
201,103	110,35
201,482	112,46
201,86	110,89
202,239	108,3
202,618	106,52
202,997	107,29
203,375	107,87
203,754	108,95
204,133	109,62
204,511	109,85
204,89	111,67
205,269	114,44
205,647	115,9
206,026	116,88
206,404	118,81
206,782	121,09
207,161	120,71
207,539	120,99
207,918	120,89
208,296	121,81
208,674	126,16
209,052	127,92
209,431	128,43
209,809	128,66
210,187	129,25
210,565	130,66
210,943	130,88
211,321	130,36
211,699	130,89
212,077	134,29
212,455	138,04
212,833	138,25
213,211	135,07
213,589	135,74
213,967	131,81
214,345	127,9
214,722	127,94
215,1	128
215,478	126,21
215,855	126,95
216,233	127,79
216,611	125,73
216,988	124,06
217,366	120,28
217,743	119,43
218,121	120,12
218,498	119,52
218,876	117,54
219,253	119,62
219,631	118,32
220,008	113,75
220,385	112,69
220,762	112,47
221,14	113,93
221,517	112,99
221,894	116,1
222,271	118,96
222,648	118,13
223,025	120,57
223,402	124,67
223,78	121,91
224,157	117,94
224,533	117
224,91	114,38
225,287	118,69
225,664	123,83
226,041	128,56
226,418	132,91
226,795	136,12
227,171	134,64
227,548	137,24
227,925	141,95
228,301	141,2
228,678	145,29
229,055	146,48
229,431	147,84
229,808	147,99
230,184	152,11
230,561	158,05
230,937	159,65
231,313	160,9
231,69	170,86
232,066	173,94
232,442	179,59
232,819	194,69
233,195	195,89
233,571	194,49
233,947	197,55
234,323	197,08
234,699	207,24
235,075	213,27
235,451	216,83
235,827	222,48
236,203	235,7
236,579	245,67
236,955	268,97
237,331	296,35
237,707	324,03
238,083	356,87
238,459	444,79
238,834	743,28
239,21	2082,24
239,586	-2582,35
239,961	-856,76
240,337	-593,35
240,713	-437,55
241,088	-338,8
241,464	-284,59
241,839	-248,14
242,215	-204,54
242,59	-167,7
242,965	-120,27
243,341	-88,94
243,716	-69,35
244,091	-56,67
244,467	-46,91
244,842	-42,17
245,217	-38,97
245,592	-37,39
245,967	-37,92
246,343	-36,76
246,718	-37,84
247,093	-38,81
247,468	-39,68
247,843	-40,7
248,218	-39,48
248,593	-38,29
248,967	-36,56
249,342	-35,15
249,717	-34,08
250,092	-34,64
250,467	-35,65
250,841	-38,59
251,216	-43,05
251,591	-48,75
251,965	-55,41
252,34	-63,04
252,714	-67,16
253,089	-70,13
253,463	-70,57
253,838	-65,69
254,212	-63,21
254,587	-59,16
254,961	-57,43
255,335	-52,38
255,71	-43,73
256,084	-34,75
256,458	-28,81
256,832	-23,59
257,206	-20,98
257,581	-19,46
257,955	-18,88
258,329	-18,15
258,703	-17,38
259,077	-16,13
259,451	-14,93
259,825	-14,29
260,199	-14,15
260,572	-14,36
260,946	-14,71
261,32	-15,12
261,694	-15,6
262,068	-15,56
262,441	-14,91
262,815	-13,68
263,189	-13,62
263,562	-13,3
263,936	-14,17
264,309	-14,58
264,683	-15,94
265,056	-16,75
265,43	-16,65
265,803	-15,75
266,176	-14,99
266,55	-14,38
266,923	-13,91
267,296	-14,01
267,67	-14,11
268,043	-13,78
268,416	-12,81
268,789	-11,28
269,162	-10,02
269,535	-8,78
269,908	-8,18
270,281	-8,43
270,654	-8,71
271,027	-8,87
271,4	-9,47
271,773	-9,89
272,146	-10,84
272,519	-11,55
272,891	-11,74
273,264	-12,43
273,637	-12,85
274,01	-12,99
274,382	-13,28
274,755	-13,35
275,127	-13,46
275,5	-13,12
275,872	-12,64
276,245	-12,36
276,617	-12,71
276,99	-13,51
277,362	-14,24
277,734	-13,81
278,107	-13,25
278,479	-12,11
278,851	-10,97
279,223	-10,14
279,596	-9,4
279,968	-8,57
280,34	-7,84
280,712	-7,74
281,084	-7,03
281,456	-6,06
281,828	-5,38
282,2	-4,72
282,572	-3,99
282,944	-3,18
283,315	-2,64
283,687	-2,4
284,059	-2,34
284,431	-1,88
284,802	-1,26
285,174	-0,93
285,546	-0,96
285,917	-0,89
286,289	-1,14
286,66	-1,4
287,032	-1,42
287,403	-1,34
287,775	-1,01
288,146	-0,83
288,518	-0,59
288,889	-0,36
289,26	-0,18
289,632	-0,3
290,003	-0,43
290,374	-0,87
290,745	-1,14
291,116	-1,14
291,487	-1,06
291,858	-0,84
292,229	-0,98
292,6	-0,7
292,971	-0,33
293,342	0,16
293,713	0,74
294,084	1,17
294,455	1,85
294,826	2,2
295,196	2,45
295,567	2,54
295,938	2,41
296,308	2,42
296,679	2,72
297,05	2,95
297,42	3,25
297,791	3,75
298,161	4,13
298,532	4,25
298,902	4,41
299,272	4,74
299,643	4,97
300,013	5,24
300,383	5,34
300,754	5,67
301,124	5,82
301,494	5,98
301,864	6,19
302,234	6,2
302,604	6,54
302,974	6,94
303,344	7,08
303,714	7,58
304,084	8,02
304,454	8,36
304,824	8,27
305,194	8,31
305,563	8,31
305,933	8,51
306,303	9,1
306,673	9,5
307,042	9,71
307,412	9,65
307,781	10
308,151	10,34
308,521	10,5
308,89	10,74
309,259	10,92
309,629	11,17
309,998	11,5
310,368	11,69
310,737	11,88
311,106	12,11
311,475	12,29
311,845	12,46
312,214	12,41
312,583	12,56
312,952	12,82
313,321	12,94
313,69	13,22
314,059	13,32
314,428	13,59
314,797	13,89
315,166	14,33
315,535	14,5
315,904	14,55
316,272	14,34
316,641	14,34
317,01	14,59
317,379	14,59
317,747	14,62
318,116	14,71
318,484	14,77
318,853	14,85
319,221	14,79
319,59	14,97
319,958	15,28
320,327	15,52
320,695	15,73
321,063	16,08
321,432	16,16
321,8	16,23
322,168	16,23
322,536	16,09
322,905	16,09
323,273	16,27
323,641	16,34
324,009	16,69
324,377	16,92
324,745	16,81
325,113	16,98
325,481	17,06
325,849	17,1
326,216	17,12
326,584	17,09
326,952	17,14
327,32	17,09
327,687	17,04
328,055	17,11
328,423	17,27
328,79	17,41
329,158	17,33
329,525	17,26
329,893	17,39
330,26	17,71
330,628	17,92
330,995	17,83
331,362	17,91
331,73	18,03
332,097	18,15
332,464	18,32
332,831	18,42
333,199	18,65
333,566	18,89
333,933	19,09
334,3	19,4
334,667	19,77
335,034	19,92
335,401	20,14
335,768	20,3
336,135	20,38
336,502	20,43
336,868	20,76
337,235	21,15
337,602	21,31
337,969	21,47
338,335	21,68
338,702	21,8
339,069	21,87
339,435	22,1
339,802	22,2
340,168	22,36
340,535	22,43
340,901	22,43
341,267	22,32
341,634	22,25
342	22,27
342,366	22,22
342,733	22,32
343,099	22,38
343,465	22,41
343,831	22,45
344,197	22,53
344,563	22,54
344,929	22,49
345,295	22,5
345,661	22,57
346,027	22,66
346,393	22,9
346,759	23,11
347,125	23,03
347,491	23,15
347,856	23,3
348,222	23,46
348,588	23,5
348,953	23,7
349,319	24
349,684	24,17
350,05	24,21
350,415	24,32
350,781	24,4
351,146	24,51
351,512	24,59
351,877	24,55
352,242	24,61
352,608	24,74
352,973	24,84
353,338	24,85
353,703	24,9
354,068	24,91
354,433	24,99
354,798	25,07
355,164	25,08
355,528	25,09
355,893	25,04
356,258	25,09
356,623	25,05
356,988	25,02
357,353	25,02
357,718	25,09
358,082	25,26
358,447	25,29
358,812	25,29
359,176	25,39
359,541	25,58
359,905	25,69
360,27	25,61
360,634	25,57
360,999	25,56
361,363	25,53
361,728	25,56
362,092	25,62
362,456	25,64
362,821	25,65
363,185	25,75
363,549	25,85
363,913	25,97
364,277	26,08
364,641	26,16
365,005	26,24
365,369	26,34
365,733	26,29
366,097	26,37
366,461	26,44
366,825	26,46
367,189	26,49
367,553	26,52
367,916	26,7
368,28	26,79
368,644	26,97
369,007	27,12
369,371	27,13
369,734	27,21
370,098	27,34
370,461	27,46
370,825	27,53
371,188	27,6
371,552	27,69
371,915	27,75
372,278	27,79
372,642	27,83
373,005	27,81
373,368	27,86
373,731	27,93
374,094	28,04
374,457	28,1
374,82	28,16
375,183	28,22
375,546	28,24
375,909	28,36
376,272	28,36
376,635	28,36
376,998	28,43
377,361	28,44
377,723	28,48
378,086	28,46
378,449	28,54
378,811	28,56
379,174	28,55
379,537	28,61
379,899	28,67
380,262	28,69
380,624	28,76
380,987	28,83
381,349	28,87
381,711	28,9
382,074	28,94
382,436	28,99
382,798	29,12
383,16	29,13
383,522	29,04
383,884	29,1
384,247	29,15
384,609	29,19
384,971	29,21
385,333	29,27
385,695	29,34
386,056	29,27
386,418	29,26
386,78	29,35
387,142	29,35
387,504	29,37
387,865	29,4
388,227	29,41
388,589	29,4
388,95	29,43
389,312	29,44
389,673	29,51
390,035	29,49
390,396	29,41
390,758	29,42
391,119	29,53
391,48	29,5
391,842	29,52
392,203	29,54
392,564	29,58
392,925	29,64
393,286	29,6
393,648	29,62
394,009	29,66
394,37	29,65
394,731	29,69
395,092	29,67
395,452	29,65
395,813	29,69
396,174	29,69
396,535	29,7
396,896	29,71
397,257	29,67
397,617	29,71
397,978	29,75
398,338	29,77
398,699	29,78
399,06	29,8
399,42	29,78
399,781	29,76
400,141	29,79
400,501	29,73
400,862	29,78
401,222	29,76
401,582	29,75
401,943	29,72
402,303	29,77
402,663	29,78
403,023	29,81
403,383	29,84
403,743	29,89
404,103	29,89
404,463	29,91
404,823	29,91
405,183	29,94
405,543	29,99
405,903	30,05
406,262	30,04
406,622	30,03
406,982	30,06
407,342	30,11
407,701	30,1
408,061	30,14
408,42	30,13
408,78	30,17
409,139	30,21
409,499	30,24
409,858	30,2
410,217	30,22
410,577	30,22
410,936	30,23
411,295	30,21
411,655	30,18
412,014	30,16
412,373	30,19
412,732	30,14
413,091	30,09
413,45	30,08
413,809	30,09
414,168	30,09
414,527	30,02
414,886	29,99
415,245	29,97
415,603	29,94
415,962	29,94
416,321	29,93
416,679	29,89
417,038	29,85
417,397	29,82
417,755	29,8
418,114	29,8
418,472	29,78
418,831	29,76
419,189	29,76
419,547	29,74
419,906	29,73
420,264	29,71
420,622	29,68
420,981	29,67
421,339	29,64
421,697	29,66
422,055	29,72
422,413	29,72
422,771	29,71
423,129	29,75
423,487	29,77
423,845	29,8
424,203	29,84
424,56	29,88
424,918	29,9
425,276	29,95
425,634	29,98
425,991	30,01
426,349	30,08
426,707	30,11
427,064	30,14
427,422	30,15
427,779	30,24
428,137	30,31
428,494	30,37
428,851	30,46
429,209	30,46
429,566	30,44
429,923	30,47
430,28	30,5
430,637	30,47
430,995	30,46
431,352	30,45
431,709	30,45
432,066	30,45
432,423	30,44
432,78	30,45
433,137	30,41
433,493	30,39
433,85	30,37
434,207	30,35
434,564	30,35
434,92	30,37
435,277	30,34
435,634	30,33
435,99	30,32
436,347	30,28
436,703	30,28
437,06	30,27
437,416	30,28
437,773	30,26
438,129	30,26
438,485	30,25
438,841	30,24
439,198	30,24
439,554	30,27
439,91	30,27
440,266	30,26
440,622	30,27
440,978	30,28
441,334	30,26
441,69	30,26
442,046	30,24
442,402	30,22
442,758	30,21
443,113	30,2
443,469	30,18
443,825	30,18
444,181	30,19
444,536	30,2
444,892	30,19
445,247	30,21
445,603	30,24
445,958	30,24
446,314	30,24
446,669	30,23
447,025	30,24
447,38	30,25
447,735	30,25
448,09	30,25
448,446	30,28
448,801	30,29
449,156	30,32
449,511	30,34
449,866	30,39
450,221	30,43
450,576	30,46
450,931	30,52
451,286	30,55
451,641	30,6
451,995	30,6
452,35	30,61
452,705	30,59
453,06	30,58
453,414	30,6
453,769	30,59
454,123	30,61
454,478	30,61
454,832	30,58
455,187	30,58
455,541	30,58
455,896	30,53
456,25	30,52
456,604	30,51
456,958	30,5
457,313	30,46
457,667	30,45
458,021	30,43
458,375	30,41
458,729	30,42
459,083	30,4
459,437	30,42
459,791	30,42
460,145	30,45
460,499	30,45
460,852	30,46
461,206	30,47
461,56	30,47
461,914	30,45
462,267	30,46
462,621	30,47
462,974	30,46
463,328	30,49
463,681	30,51
464,035	30,5
464,388	30,53
464,742	30,56
465,095	30,58
465,448	30,62
465,801	30,61
466,155	30,64
466,508	30,66
466,861	30,62
467,214	30,64
467,567	30,64
467,92	30,65
468,273	30,65
468,626	30,64
468,979	30,65
469,332	30,65
469,684	30,66
470,037	30,66
470,39	30,68
470,743	30,71
471,095	30,7
471,448	30,72
471,8	30,73
472,153	30,74
472,505	30,75
472,858	30,74
473,21	30,79
473,562	30,79
473,915	30,78
474,267	30,79
474,619	30,79
474,971	30,79
475,324	30,79
475,676	30,79
476,028	30,8
476,38	30,79
476,732	30,81
477,084	30,84
477,436	30,83
477,787	30,83
478,139	30,81
478,491	30,83
478,843	30,84
479,195	30,79
479,546	30,78
479,898	30,75
480,249	30,77
480,601	30,81
480,952	30,84
481,304	30,83
481,655	30,8
482,007	30,77
482,358	30,76
482,709	30,75
483,061	30,73
483,412	30,71
483,763	30,69
484,114	30,68
484,465	30,66
484,816	30,65
485,167	30,65
485,518	30,64
485,869	30,63
486,22	30,62
486,571	30,64
486,922	30,64
487,272	30,64
487,623	30,61
487,974	30,54
488,324	30,49
488,675	30,47
489,025	30,47
489,376	30,5
489,726	30,5
490,077	30,52
490,427	30,54
490,778	30,56
491,128	30,57
491,478	30,59
491,828	30,62
492,179	30,62
492,529	30,61
492,879	30,61
493,229	30,63
493,579	30,65
493,929	30,63
494,279	30,64
494,629	30,64
494,979	30,67
495,328	30,7
495,678	30,73
496,028	30,76
496,378	30,79
496,727	30,8
497,077	30,82
497,426	30,84
497,776	30,84
498,125	30,88
498,475	30,86
498,824	30,87
499,174	30,86
499,523	30,87
499,872	30,87
500,221	30,91
500,571	30,9
500,92	30,9
501,269	30,93
501,618	30,91
501,967	30,94
502,316	30,93
502,665	30,97
503,014	30,99
503,363	30,98
503,711	30,98
504,06	30,97
504,409	30,94
504,758	30,91
505,106	30,91
505,455	30,85
505,803	30,85
506,152	30,82
506,5	30,83
506,849	30,84
507,197	30,85
507,546	30,86
507,894	30,86
508,242	30,86
508,59	30,88
508,939	30,88
509,287	30,86
509,635	30,87
509,983	30,84
510,331	30,83
510,679	30,84
511,027	30,85
511,375	30,87
511,723	30,9
512,07	30,9
512,418	30,91
512,766	30,96
513,114	31,01
513,461	31,04
513,809	31,06
514,156	31,08
514,504	31,09
514,851	31,06
515,199	31,06
515,546	31,03
515,893	31
516,241	31,01
516,588	31,02
516,935	31,02
517,282	31,04
517,63	31,03
517,977	31,03
518,324	31,05
518,671	31,04
519,018	31,03
519,365	31,04
519,711	31,06
520,058	31,05
520,405	31,03
520,752	30,99
521,099	30,99
521,445	30,98
521,792	30,99
522,138	31,01
522,485	31,01
522,832	31,05
523,178	31,06
523,524	31,04
523,871	31,06
524,217	31,04
524,563	31
524,91	30,98
525,256	30,98
525,602	30,98
525,948	30,99
526,294	30,98
526,64	30,95
526,986	30,93
527,332	30,93
527,678	30,92
528,024	30,93
528,37	30,92
528,716	30,92
529,061	30,9
529,407	30,89
529,753	30,89
530,098	30,88
530,444	30,88
530,789	30,9
531,135	30,89
531,48	30,89
531,826	30,92
532,171	30,93
532,516	30,94
532,862	30,93
533,207	30,91
533,552	30,9
533,897	30,92
534,242	30,94
534,587	30,95
534,932	30,99
535,277	30,99
535,622	30,99
535,967	31,03
536,312	31,06
536,657	31,07
537,001	31,09
537,346	31,09
537,691	31,08
538,035	31,05
538,38	31,04
538,724	31,02
539,069	30,98
539,413	30,98
539,758	30,96
540,102	30,96
540,446	30,97
540,791	30,99
541,135	30,98
541,479	30,95
541,823	30,94
542,167	30,92
542,512	30,91
542,856	30,89
543,2	30,85
543,543	30,84
543,887	30,85
544,231	30,87
544,575	30,89
544,919	30,92
545,262	30,96
545,606	30,99
545,95	31,03
546,293	31,06
546,637	31,06
546,98	31,09
547,324	31,08
547,667	31,08
548,011	31,09
548,354	31,12
548,697	31,13
549,04	31,15
549,384	31,11
549,727	31,1
550,07	31,16
550,413	31,19
550,756	31,18
551,099	31,17
551,442	31,12
551,785	31,12
552,128	31,08
552,47	31,02
552,813	31,02
553,156	31,02
553,499	30,99
553,841	31
554,184	30,98
554,526	30,98
554,869	30,98
555,211	30,97
555,554	30,93
555,896	30,93
556,238	30,87
556,581	30,89
556,923	30,88
557,265	30,87
557,607	30,86
557,949	30,9
558,291	30,87
558,633	30,87
558,975	30,83
559,317	30,82
559,659	30,83
560,001	30,81
560,343	30,78
560,685	30,75
561,026	30,78
561,368	30,74
561,71	30,73
562,051	30,7
562,393	30,73
562,734	30,74
563,076	30,71
563,417	30,74
563,759	30,71
564,1	30,74
564,441	30,72
564,782	30,68
565,124	30,63
565,465	30,62
565,806	30,59
566,147	30,59
566,488	30,6
566,829	30,59
567,17	30,56
567,511	30,59
567,851	30,61
568,192	30,55
568,533	30,55
568,874	30,55
569,214	30,57
569,555	30,53
569,895	30,48
570,236	30,49
570,576	30,5
570,917	30,51
571,257	30,47
571,598	30,48
571,938	30,48
572,278	30,48
572,618	30,5
572,959	30,52
573,299	30,5
573,639	30,48
573,979	30,47
574,319	30,47
574,659	30,45
574,999	30,42
575,339	30,41
575,678	30,41
576,018	30,37
576,358	30,34
576,698	30,31
577,037	30,31
577,377	30,29
577,716	30,28
578,056	30,27
578,395	30,24
578,735	30,22
579,074	30,2
579,413	30,18
579,753	30,17
580,092	30,14
580,431	30,15
580,77	30,17
581,109	30,16
581,448	30,15
581,787	30,11
582,126	30,14
582,465	30,14
582,804	30,12
583,143	30,17
583,482	30,14
583,82	30,18
584,159	30,17
584,498	30,18
584,836	30,16
585,175	30,13
585,514	30,17
585,852	30,2
586,19	30,21
586,529	30,24
586,867	30,26
587,205	30,28
587,544	30,27
587,882	30,24
588,22	30,27
588,558	30,26
588,896	30,3
589,234	30,3
589,572	30,32
589,91	30,34
590,248	30,31
590,586	30,36
590,924	30,34
591,262	30,35
591,599	30,34
591,937	30,34
592,275	30,38
592,612	30,32
592,95	30,31
593,287	30,3
593,625	30,31
593,962	30,28
594,299	30,27
594,637	30,3
594,974	30,3
595,311	30,3
595,648	30,32
595,985	30,33
596,322	30,3
596,659	30,28
596,996	30,25
597,333	30,23
597,67	30,24
598,007	30,22
598,344	30,22
598,681	30,24
599,017	30,25
599,354	30,26
599,691	30,31
600,027	30,3
600,364	30,35
600,7	30,34
601,037	30,34
601,373	30,34
601,71	30,36
602,046	30,4
602,382	30,43
602,718	30,42
603,054	30,37
603,391	30,41
603,727	30,42
604,063	30,45
604,399	30,48
604,735	30,45
605,071	30,47
605,406	30,51
605,742	30,49
606,078	30,49
606,414	30,5
606,749	30,5
607,085	30,5
607,421	30,5
607,756	30,49
608,092	30,51
608,427	30,52
608,762	30,45
609,098	30,43
609,433	30,41
609,768	30,39
610,104	30,41
610,439	30,39
610,774	30,38
611,109	30,37
611,444	30,35
611,779	30,38
612,114	30,35
612,449	30,32
612,784	30,31
613,118	30,3
613,453	30,24
613,788	30,19
614,123	30,15
614,457	30,1
614,792	30,09
615,126	30
615,461	29,96
615,795	29,98
616,13	29,99
616,464	29,96
616,798	29,96
617,132	29,92
617,467	29,93
617,801	29,98
618,135	29,96
618,469	29,96
618,803	29,9
619,137	29,89
619,471	29,88
619,805	29,87
620,139	29,86
620,472	29,92
620,806	29,97
621,14	29,94
621,473	29,93
621,807	29,92
622,141	29,99
622,474	30,03
622,808	30,06
623,141	30,04
623,474	30,07
623,808	30,11
624,141	30,22
624,474	30,22
624,807	30,15
625,141	30,18
625,474	30,18
625,807	30,23
626,14	30,21
626,473	30,2
626,806	30,23
627,138	30,27
627,471	30,24
627,804	30,24
628,137	30,31
628,469	30,29
628,802	30,31
629,135	30,28
629,467	30,28
629,8	30,23
630,132	30,23
630,465	30,2
630,797	30,18
631,129	30,13
631,461	30,1
631,794	30,14
632,126	30,08
632,458	30,08
632,79	30,09
633,122	30,12
633,454	30,08
633,786	30,03
634,118	30,03
634,45	30,05
634,781	30,04
635,113	30,01
635,445	30,02
635,777	30
636,108	30
636,44	29,94
636,771	30
637,103	29,98
637,434	29,98
637,765	29,93
638,097	29,96
638,428	29,97
638,759	29,96
639,09	30,01
639,422	30,01
639,753	29,99
640,084	29,98
640,415	30,01
640,746	30,05
641,077	30
641,407	29,99
641,738	29,93
642,069	29,92
642,4	29,95
642,73	29,94
643,061	29,95
643,392	30
643,722	29,95
644,053	30,01
644,383	30
644,713	29,96
645,044	29,92
645,374	29,92
645,704	29,96
646,034	29,93
646,365	29,95
646,695	29,98
