Data from zc_m4_p1_Reflection_2,txt Node
Date: Wed Nov 25 16:59:31 GMT-03:00 2020
User: Darío
Spectrometer: USB2E3644
Trigger mode: 4
Integration Time (sec): 9,000000E-2
Scans to average: 10
Electric dark correction enabled: true
Nonlinearity correction enabled: false
Boxcar width: 10
XAxis mode: Wavelengths
Number of Pixels in Spectrum: 2048
>>>>>Begin Spectral Data<<<<<
178,315	98,82
178,696	125,84
179,076	190,94
179,457	185,52
179,838	154,62
180,218	196,2
180,599	239,52
180,979	106,45
181,36	1520
181,74	682,61
182,121	209,16
182,501	145,32
182,881	140,11
183,262	115,85
183,642	116,33
184,022	118,43
184,402	107,06
184,783	102,11
185,163	99,94
185,543	98,28
185,923	100,86
186,303	104,92
186,683	108,19
187,063	111,51
187,443	111,69
187,823	112,84
188,203	115,06
188,583	113,8
188,963	113,25
189,343	113,46
189,723	110,17
190,102	108,97
190,482	110,45
190,862	110,23
191,242	110,78
191,621	112,53
192,001	115,23
192,38	116,57
192,76	116,84
193,14	116,6
193,519	118,65
193,898	119,81
194,278	119,67
194,657	118,76
195,037	118,95
195,416	116,63
195,795	113,38
196,175	113,78
196,554	114,8
196,933	112,68
197,312	110,41
197,692	111,65
198,071	110,89
198,45	109,65
198,829	110,19
199,208	110,46
199,587	108,48
199,966	106,91
200,345	105,99
200,724	107,84
201,103	109,81
201,482	110,34
201,86	112,34
202,239	113,93
202,618	114,63
202,997	113,6
203,375	115,77
203,754	119,32
204,133	119,59
204,511	121,47
204,89	123,24
205,269	127,16
205,647	129,69
206,026	133
206,404	133
206,782	129,58
207,161	129,6
207,539	132,27
207,918	134,39
208,296	137,01
208,674	136,71
209,052	134,98
209,431	135,67
209,809	132,02
210,187	130,03
210,565	128,42
210,943	128,44
211,321	126,99
211,699	126,36
212,077	126,93
212,455	123,52
212,833	122,74
213,211	121,01
213,589	119,74
213,967	119,86
214,345	120,56
214,722	123,49
215,1	120,5
215,478	117,13
215,855	116,45
216,233	116,67
216,611	116,05
216,988	117,65
217,366	117,24
217,743	116,25
218,121	116,52
218,498	120,61
218,876	123,57
219,253	126,89
219,631	130,5
220,008	132,5
220,385	136,34
220,762	137,08
221,14	136,67
221,517	133,51
221,894	131,79
222,271	131,51
222,648	130,02
223,025	133,74
223,402	140,79
223,78	140,39
224,157	137,39
224,533	139,25
224,91	141,49
225,287	140,44
225,664	140,85
226,041	140,07
226,418	140,07
226,795	140,73
227,171	138,92
227,548	131,56
227,925	126,26
228,301	123,68
228,678	126,27
229,055	130,15
229,431	133,67
229,808	133,59
230,184	134,79
230,561	142,68
230,937	146,66
231,313	146,84
231,69	148,78
232,066	148,76
232,442	149,64
232,819	147,2
233,195	147,66
233,571	151,25
233,947	154,85
234,323	152,92
234,699	154,78
235,075	162,01
235,451	173,62
235,827	184,41
236,203	193,8
236,579	195,97
236,955	200,85
237,331	214,29
237,707	240,79
238,083	288,44
238,459	341,62
238,834	488,75
239,21	828,81
239,586	3529,2
239,961	-2416,57
240,337	-1584,15
240,713	-720,28
241,088	-521,55
241,464	-476,14
241,839	-409,75
242,215	-281,04
242,59	-214,87
242,965	-148,08
243,341	-105,47
243,716	-81,33
244,091	-67,21
244,467	-57,86
244,842	-53,29
245,217	-51,22
245,592	-49,41
245,967	-50,45
246,343	-50,75
246,718	-52,76
247,093	-54,63
247,468	-54,42
247,843	-54,34
248,218	-51,99
248,593	-50,44
248,967	-48,28
249,342	-46,3
249,717	-46,03
250,092	-46,69
250,467	-47,62
250,841	-50,89
251,216	-57,59
251,591	-64,41
251,965	-72,49
252,34	-78,98
252,714	-81,52
253,089	-82,42
253,463	-82,31
253,838	-76,14
254,212	-71,9
254,587	-67,34
254,961	-65,45
255,335	-62,13
255,71	-54,06
256,084	-44
256,458	-37,04
256,832	-32,06
257,206	-28,99
257,581	-26,67
257,955	-25,75
258,329	-25,07
258,703	-23,59
259,077	-22,38
259,451	-21,51
259,825	-20,76
260,199	-20,34
260,572	-20,93
260,946	-21,35
261,32	-21,77
261,694	-22,18
262,068	-22,5
262,441	-22,3
262,815	-20,47
263,189	-20,06
263,562	-20,06
263,936	-21,09
264,309	-21,84
264,683	-23,48
265,056	-24,6
265,43	-24,93
265,803	-24,15
266,176	-22,8
266,55	-22,32
266,923	-21,69
267,296	-21,19
267,67	-20,65
268,043	-20,38
268,416	-19,31
268,789	-17,49
269,162	-15,82
269,535	-14,56
269,908	-13,48
270,281	-12,8
270,654	-13,03
271,027	-13,02
271,4	-13,72
271,773	-14,08
272,146	-14,7
272,519	-14,95
272,891	-14,81
273,264	-15,18
273,637	-15,43
274,01	-15,69
274,382	-15,96
274,755	-15,7
275,127	-16,07
275,5	-16,3
275,872	-15,9
276,245	-15,81
276,617	-16,42
276,99	-16,95
277,362	-17,24
277,734	-17,06
278,107	-17,25
278,479	-16,63
278,851	-16,13
279,223	-15,26
279,596	-14,93
279,968	-14,14
280,34	-13,69
280,712	-13,48
281,084	-13,07
281,456	-12,51
281,828	-12,04
282,2	-11,49
282,572	-10,95
282,944	-10,07
283,315	-9,58
283,687	-9,3
284,059	-8,98
284,431	-8,66
284,802	-8,44
285,174	-8,47
285,546	-8,69
285,917	-8,89
286,289	-9,27
286,66	-9,31
287,032	-9,02
287,403	-8,76
287,775	-8,72
288,146	-8,65
288,518	-8,42
288,889	-8,38
289,26	-8,47
289,632	-8,73
290,003	-9,03
290,374	-9,6
290,745	-10,17
291,116	-10,38
291,487	-10,43
291,858	-10,69
292,229	-10,85
292,6	-10,7
292,971	-10,4
293,342	-9,87
293,713	-9,09
294,084	-8,56
294,455	-8,03
294,826	-8,02
295,196	-7,58
295,567	-7,14
295,938	-6,86
296,308	-6,89
296,679	-6,53
297,05	-6,29
297,42	-6,24
297,791	-5,98
298,161	-5,8
298,532	-5,61
298,902	-5,43
299,272	-5,15
299,643	-4,72
300,013	-4,46
300,383	-4,47
300,754	-4,48
301,124	-4,66
301,494	-4,79
301,864	-4,62
302,234	-4,85
302,604	-4,78
302,974	-5,06
303,344	-5,37
303,714	-5,5
304,084	-5,47
304,454	-5,31
304,824	-5,11
305,194	-4,97
305,563	-5,04
305,933	-4,78
306,303	-4,43
306,673	-4,1
307,042	-4,09
307,412	-4,23
307,781	-4,02
308,151	-3,75
308,521	-3,39
308,89	-3,11
309,259	-2,94
309,629	-2,92
309,998	-2,91
310,368	-2,87
310,737	-2,79
311,106	-2,78
311,475	-2,66
311,845	-2,49
312,214	-2,67
312,583	-2,98
312,952	-2,97
313,321	-2,97
313,69	-3,1
314,059	-3,21
314,428	-3,21
314,797	-3,07
315,166	-2,94
315,535	-3,09
315,904	-3,19
316,272	-3,5
316,641	-3,53
317,01	-3,55
317,379	-3,51
317,747	-3,28
318,116	-3,04
318,484	-2,98
318,853	-2,83
319,221	-2,87
319,59	-2,86
319,958	-2,68
320,327	-2,34
320,695	-2,16
321,063	-2,11
321,432	-1,93
321,8	-1,88
322,168	-1,99
322,536	-2,16
322,905	-2,33
323,273	-2,2
323,641	-2,07
324,009	-1,85
324,377	-1,8
324,745	-1,78
325,113	-1,66
325,481	-1,68
325,849	-1,97
326,216	-2,02
326,584	-1,94
326,952	-1,77
327,32	-1,68
327,687	-1,57
328,055	-1,57
328,423	-1,55
328,79	-1,44
329,158	-1,41
329,525	-1,23
329,893	-1,02
330,26	-0,84
330,628	-0,65
330,995	-0,64
331,362	-0,49
331,73	-0,36
332,097	-0,21
332,464	-0,2
332,831	-0,41
333,199	-0,29
333,566	-0,02
333,933	0,15
334,3	0,26
334,667	0,4
335,034	0,32
335,401	0,31
335,768	0,41
336,135	0,44
336,502	0,52
336,868	0,67
337,235	0,7
337,602	0,78
337,969	0,79
338,335	0,86
338,702	0,9
339,069	0,83
339,435	0,84
339,802	0,75
340,168	0,78
340,535	0,92
340,901	0,94
341,267	0,83
341,634	0,8
342	0,76
342,366	0,78
342,733	0,82
343,099	0,88
343,465	0,88
343,831	0,95
344,197	0,92
344,563	0,9
344,929	0,89
345,295	0,88
345,661	0,97
346,027	1,08
346,393	1,29
346,759	1,37
347,125	1,44
347,491	1,55
347,856	1,75
348,222	1,92
348,588	2,09
348,953	2,28
349,319	2,5
349,684	2,66
350,05	2,65
350,415	2,77
350,781	2,91
351,146	3,03
351,512	3,08
351,877	3,21
352,242	3,29
352,608	3,33
352,973	3,33
353,338	3,33
353,703	3,39
354,068	3,28
354,433	3,33
354,798	3,36
355,164	3,28
355,528	3,15
355,893	3,12
356,258	3,04
356,623	3,04
356,988	3,02
357,353	3,04
357,718	3,11
358,082	3,17
358,447	3,11
358,812	3,16
359,176	3,34
359,541	3,42
359,905	3,46
360,27	3,47
360,634	3,5
360,999	3,52
361,363	3,54
361,728	3,67
362,092	3,75
362,456	3,81
362,821	3,93
363,185	4,07
363,549	4,18
363,913	4,27
364,277	4,35
364,641	4,44
365,005	4,48
365,369	4,47
365,733	4,45
366,097	4,55
366,461	4,53
366,825	4,47
367,189	4,51
367,553	4,65
367,916	4,83
368,28	4,97
368,644	5,09
369,007	5,2
369,371	5,17
369,734	5,21
370,098	5,25
370,461	5,32
370,825	5,37
371,188	5,39
371,552	5,48
371,915	5,57
372,278	5,61
372,642	5,69
373,005	5,77
373,368	5,88
373,731	5,91
374,094	6
374,457	6,09
374,82	6,12
375,183	6,16
375,546	6,16
375,909	6,17
376,272	6,24
376,635	6,28
376,998	6,38
377,361	6,44
377,723	6,48
378,086	6,5
378,449	6,56
378,811	6,59
379,174	6,6
379,537	6,6
379,899	6,66
380,262	6,65
380,624	6,71
380,987	6,76
381,349	6,82
381,711	6,87
382,074	6,87
382,436	6,91
382,798	6,98
383,16	7,01
383,522	7,04
383,884	7,02
384,247	7,02
384,609	7,06
384,971	7,11
385,333	7,16
385,695	7,21
386,056	7,13
386,418	7,17
386,78	7,19
387,142	7,18
387,504	7,15
387,865	7,18
388,227	7,2
388,589	7,22
388,95	7,23
389,312	7,26
389,673	7,25
390,035	7,25
390,396	7,21
390,758	7,21
391,119	7,24
391,48	7,26
391,842	7,26
392,203	7,26
392,564	7,25
392,925	7,27
393,286	7,24
393,648	7,31
394,009	7,32
394,37	7,34
394,731	7,39
395,092	7,43
395,452	7,43
395,813	7,41
396,174	7,42
396,535	7,41
396,896	7,39
397,257	7,44
397,617	7,47
397,978	7,51
398,338	7,52
398,699	7,58
399,06	7,62
399,42	7,62
399,781	7,6
400,141	7,59
400,501	7,56
400,862	7,6
401,222	7,56
401,582	7,56
401,943	7,53
402,303	7,53
402,663	7,51
403,023	7,52
403,383	7,57
403,743	7,59
404,103	7,64
404,463	7,65
404,823	7,66
405,183	7,66
405,543	7,66
405,903	7,71
406,262	7,65
406,622	7,6
406,982	7,6
407,342	7,63
407,701	7,68
408,061	7,71
408,42	7,72
408,78	7,76
409,139	7,79
409,499	7,78
409,858	7,79
410,217	7,82
410,577	7,84
410,936	7,81
411,295	7,78
411,655	7,75
412,014	7,74
412,373	7,7
412,732	7,66
413,091	7,6
413,45	7,52
413,809	7,48
414,168	7,43
414,527	7,38
414,886	7,31
415,245	7,27
415,603	7,21
415,962	7,15
416,321	7,11
416,679	7,05
417,038	7,02
417,397	6,97
417,755	6,91
418,114	6,85
418,472	6,83
418,831	6,8
419,189	6,78
419,547	6,74
419,906	6,73
420,264	6,71
420,622	6,69
420,981	6,68
421,339	6,69
421,697	6,7
422,055	6,72
422,413	6,73
422,771	6,74
423,129	6,74
423,487	6,78
423,845	6,8
424,203	6,83
424,56	6,87
424,918	6,91
425,276	6,96
425,634	7,01
425,991	7,04
426,349	7,06
426,707	7,11
427,064	7,17
427,422	7,21
427,779	7,28
428,137	7,32
428,494	7,37
428,851	7,43
429,209	7,46
429,566	7,47
429,923	7,47
430,28	7,46
430,637	7,48
430,995	7,47
431,352	7,47
431,709	7,48
432,066	7,45
432,423	7,46
432,78	7,47
433,137	7,47
433,493	7,47
433,85	7,48
434,207	7,45
434,564	7,43
434,92	7,43
435,277	7,4
435,634	7,38
435,99	7,36
436,347	7,32
436,703	7,31
437,06	7,28
437,416	7,28
437,773	7,25
438,129	7,23
438,485	7,23
438,841	7,23
439,198	7,22
439,554	7,24
439,91	7,23
440,266	7,22
440,622	7,21
440,978	7,2
441,334	7,18
441,69	7,18
442,046	7,16
442,402	7,14
442,758	7,12
443,113	7,1
443,469	7,1
443,825	7,11
444,181	7,09
444,536	7,11
444,892	7,1
445,247	7,12
445,603	7,14
445,958	7,14
446,314	7,14
446,669	7,15
447,025	7,15
447,38	7,15
447,735	7,15
448,09	7,17
448,446	7,18
448,801	7,19
449,156	7,21
449,511	7,26
449,866	7,28
450,221	7,33
450,576	7,39
450,931	7,41
451,286	7,45
451,641	7,49
451,995	7,53
452,35	7,56
452,705	7,58
453,06	7,58
453,414	7,59
453,769	7,58
454,123	7,6
454,478	7,59
454,832	7,59
455,187	7,57
455,541	7,58
455,896	7,57
456,25	7,54
456,604	7,53
456,958	7,5
457,313	7,49
457,667	7,46
458,021	7,47
458,375	7,47
458,729	7,5
459,083	7,51
459,437	7,51
459,791	7,51
460,145	7,52
460,499	7,5
460,852	7,5
461,206	7,51
461,56	7,5
461,914	7,52
462,267	7,51
462,621	7,52
462,974	7,53
463,328	7,55
463,681	7,58
464,035	7,58
464,388	7,59
464,742	7,61
465,095	7,63
465,448	7,63
465,801	7,61
466,155	7,6
466,508	7,6
466,861	7,59
467,214	7,59
467,567	7,59
467,92	7,62
468,273	7,63
468,626	7,63
468,979	7,63
469,332	7,63
469,684	7,65
470,037	7,67
470,39	7,67
470,743	7,67
471,095	7,68
471,448	7,7
471,8	7,74
472,153	7,75
472,505	7,79
472,858	7,8
473,21	7,82
473,562	7,82
473,915	7,82
474,267	7,84
474,619	7,83
474,971	7,83
475,324	7,81
475,676	7,84
476,028	7,82
476,38	7,84
476,732	7,85
477,084	7,85
477,436	7,85
477,787	7,83
478,139	7,82
478,491	7,81
478,843	7,79
479,195	7,78
479,546	7,75
479,898	7,68
480,249	7,61
480,601	7,54
480,952	7,49
481,304	7,46
481,655	7,44
482,007	7,43
482,358	7,42
482,709	7,42
483,061	7,4
483,412	7,4
483,763	7,38
484,114	7,36
484,465	7,33
484,816	7,32
485,167	7,31
485,518	7,31
485,869	7,31
486,22	7,3
486,571	7,3
486,922	7,31
487,272	7,32
487,623	7,35
487,974	7,37
488,324	7,39
488,675	7,4
489,025	7,4
489,376	7,41
489,726	7,42
490,077	7,42
490,427	7,43
490,778	7,44
491,128	7,46
491,478	7,49
491,828	7,54
492,179	7,59
492,529	7,62
492,879	7,65
493,229	7,66
493,579	7,67
493,929	7,66
494,279	7,66
494,629	7,66
494,979	7,66
495,328	7,68
495,678	7,71
496,028	7,75
496,378	7,8
496,727	7,82
497,077	7,85
497,426	7,88
497,776	7,9
498,125	7,91
498,475	7,91
498,824	7,91
499,174	7,9
499,523	7,87
499,872	7,87
500,221	7,87
500,571	7,88
500,92	7,9
501,269	7,93
501,618	7,94
501,967	7,95
502,316	7,98
502,665	7,99
503,014	8
503,363	8,03
503,711	8,03
504,06	8,01
504,409	8
504,758	7,96
505,106	7,96
505,455	7,94
505,803	7,95
506,152	7,95
506,5	7,95
506,849	7,98
507,197	8
507,546	8
507,894	8
508,242	8
508,59	8,01
508,939	8
509,287	8
509,635	8
509,983	8,01
510,331	8,01
510,679	8
511,027	8
511,375	8,04
511,723	8,04
512,07	8,07
512,418	8,08
512,766	8,09
513,114	8,08
513,461	8,1
513,809	8,11
514,156	8,1
514,504	8,09
514,851	8,07
515,199	8,07
515,546	8,08
515,893	8,06
516,241	8,07
516,588	8,08
516,935	8,08
517,282	8,07
517,63	8,08
517,977	8,09
518,324	8,1
518,671	8,11
519,018	8,12
519,365	8,12
519,711	8,14
520,058	8,14
520,405	8,15
520,752	8,15
521,099	8,16
521,445	8,16
521,792	8,16
522,138	8,18
522,485	8,17
522,832	8,17
523,178	8,18
523,524	8,17
523,871	8,17
524,217	8,17
524,563	8,15
524,91	8,09
525,256	8,05
525,602	8,01
525,948	7,98
526,294	7,95
526,64	7,92
526,986	7,89
527,332	7,88
527,678	7,87
528,024	7,86
528,37	7,86
528,716	7,85
529,061	7,85
529,407	7,85
529,753	7,85
530,098	7,86
530,444	7,85
530,789	7,85
531,135	7,86
531,48	7,86
531,826	7,86
532,171	7,89
532,516	7,9
532,862	7,93
533,207	7,96
533,552	7,98
533,897	8,01
534,242	8,03
534,587	8,05
534,932	8,07
535,277	8,08
535,622	8,09
535,967	8,12
536,312	8,13
536,657	8,14
537,001	8,15
537,346	8,15
537,691	8,15
538,035	8,13
538,38	8,1
538,724	8,09
539,069	8,1
539,413	8,1
539,758	8,09
540,102	8,09
540,446	8,07
540,791	8,07
541,135	8,08
541,479	8,08
541,823	8,08
542,167	8,07
542,512	8,07
542,856	8,06
543,2	8,06
543,543	8,05
543,887	8,06
544,231	8,08
544,575	8,09
544,919	8,11
545,262	8,14
545,606	8,17
545,95	8,2
546,293	8,22
546,637	8,22
546,98	8,26
547,324	8,24
547,667	8,28
548,011	8,29
548,354	8,28
548,697	8,27
549,04	8,29
549,384	8,3
549,727	8,29
550,07	8,31
550,413	8,31
550,756	8,31
551,099	8,31
551,442	8,28
551,785	8,27
552,128	8,26
552,47	8,24
552,813	8,25
553,156	8,25
553,499	8,22
553,841	8,23
554,184	8,19
554,526	8,19
554,869	8,16
555,211	8,16
555,554	8,15
555,896	8,16
556,238	8,15
556,581	8,15
556,923	8,13
557,265	8,1
557,607	8,07
557,949	8,05
558,291	8,04
558,633	8,02
558,975	7,99
559,317	7,98
559,659	7,99
560,001	7,97
560,343	7,94
560,685	7,94
561,026	7,93
561,368	7,92
561,71	7,92
562,051	7,89
562,393	7,9
562,734	7,88
563,076	7,88
563,417	7,88
563,759	7,86
564,1	7,86
564,441	7,84
564,782	7,83
565,124	7,81
565,465	7,79
565,806	7,79
566,147	7,79
566,488	7,78
566,829	7,76
567,17	7,73
567,511	7,72
567,851	7,7
568,192	7,68
568,533	7,68
568,874	7,67
569,214	7,66
569,555	7,65
569,895	7,67
570,236	7,64
570,576	7,6
570,917	7,58
571,257	7,57
571,598	7,57
571,938	7,54
572,278	7,53
572,618	7,52
572,959	7,52
573,299	7,51
573,639	7,5
573,979	7,49
574,319	7,5
574,659	7,5
574,999	7,5
575,339	7,47
575,678	7,45
576,018	7,41
576,358	7,38
576,698	7,35
577,037	7,3
577,377	7,27
577,716	7,26
578,056	7,25
578,395	7,22
578,735	7,2
579,074	7,23
579,413	7,24
579,753	7,23
580,092	7,21
580,431	7,2
580,77	7,18
581,109	7,16
581,448	7,13
581,787	7,1
582,126	7,08
582,465	7,11
582,804	7,14
583,143	7,18
583,482	7,2
583,82	7,22
584,159	7,21
584,498	7,23
584,836	7,22
585,175	7,23
585,514	7,25
585,852	7,24
586,19	7,23
586,529	7,23
586,867	7,21
587,205	7,22
587,544	7,22
587,882	7,23
588,22	7,23
588,558	7,21
588,896	7,25
589,234	7,26
589,572	7,25
589,91	7,24
590,248	7,22
590,586	7,22
590,924	7,21
591,262	7,22
591,599	7,23
591,937	7,24
592,275	7,23
592,612	7,23
592,95	7,25
593,287	7,26
593,625	7,27
593,962	7,29
594,299	7,31
594,637	7,32
594,974	7,34
595,311	7,36
595,648	7,39
595,985	7,39
596,322	7,39
596,659	7,4
596,996	7,4
597,333	7,37
597,67	7,37
598,007	7,38
598,344	7,37
598,681	7,38
599,017	7,39
599,354	7,4
599,691	7,41
600,027	7,42
600,364	7,44
600,7	7,46
601,037	7,47
601,373	7,51
601,71	7,52
602,046	7,53
602,382	7,53
602,718	7,55
603,054	7,55
603,391	7,54
603,727	7,54
604,063	7,55
604,399	7,57
604,735	7,58
605,071	7,59
605,406	7,62
605,742	7,62
606,078	7,64
606,414	7,67
606,749	7,67
607,085	7,68
607,421	7,67
607,756	7,66
608,092	7,65
608,427	7,63
608,762	7,6
609,098	7,62
609,433	7,61
609,768	7,57
610,104	7,59
610,439	7,61
610,774	7,62
611,109	7,61
611,444	7,6
611,779	7,6
612,114	7,6
612,449	7,57
612,784	7,58
613,118	7,55
613,453	7,52
613,788	7,48
614,123	7,45
614,457	7,41
614,792	7,38
615,126	7,36
615,461	7,33
615,795	7,32
616,13	7,27
616,464	7,26
616,798	7,27
617,132	7,24
617,467	7,24
617,801	7,22
618,135	7,24
618,469	7,26
618,803	7,24
619,137	7,2
619,471	7,2
619,805	7,18
620,139	7,19
620,472	7,2
620,806	7,23
621,14	7,21
621,473	7,23
621,807	7,23
622,141	7,26
622,474	7,28
622,808	7,28
623,141	7,33
623,474	7,38
623,808	7,4
624,141	7,4
624,474	7,41
624,807	7,42
625,141	7,41
625,474	7,44
625,807	7,47
626,14	7,49
626,473	7,52
626,806	7,55
627,138	7,54
627,471	7,54
627,804	7,54
628,137	7,57
628,469	7,57
628,802	7,59
629,135	7,59
629,467	7,62
629,8	7,64
630,132	7,6
630,465	7,57
630,797	7,56
631,129	7,57
631,461	7,57
631,794	7,62
632,126	7,58
632,458	7,53
632,79	7,51
633,122	7,52
633,454	7,49
633,786	7,45
634,118	7,49
634,45	7,54
634,781	7,56
635,113	7,58
635,445	7,6
635,777	7,59
636,108	7,59
636,44	7,58
636,771	7,58
637,103	7,62
637,434	7,62
637,765	7,63
638,097	7,64
638,428	7,6
638,759	7,53
639,09	7,56
639,422	7,58
639,753	7,57
640,084	7,51
640,415	7,53
640,746	7,54
641,077	7,51
641,407	7,48
641,738	7,44
642,069	7,42
642,4	7,38
642,73	7,36
643,061	7,34
643,392	7,31
643,722	7,28
644,053	7,26
644,383	7,26
644,713	7,23
645,044	7,25
645,374	7,28
645,704	7,28
646,034	7,31
646,365	7,32
646,695	7,37
647,025	7,45
647,355	7,51
647,685	7,55
648,015	7,56
648,344	7,57
648,674	7,59
649,004	7,63
649,334	7,7
649,663	7,77
649,993	7,83
650,323	7,88
650,652	7,92
650,982	7,9
651,311	7,9
651,64	7,91
651,97	7,86
652,299	7,83
652,628	7,86
652,958	7,86
653,287	7,88
653,616	7,85
653,945	7,82
654,274	7,8
654,603	7,8
654,932	7,82
655,261	7,82
655,589	7,84
655,918	7,85
656,247	7,88
656,576	7,91
656,904	7,92
657,233	7,94
657,561	7,94
657,89	7,97
658,218	8,02
658,547	8,07
658,875	8,14
659,203	8,2
659,532	8,2
659,86	8,24
660,188	8,22
660,516	8,23
660,844	8,21
661,172	8,2
661,5	8,19
661,828	8,22
662,156	8,19
662,484	8,16
662,811	8,1
663,139	8,02
663,467	7,93
663,794	7,9
664,122	7,83
664,45	7,8
664,777	7,78
665,104	7,76
665,432	7,74
665,759	7,7
666,086	7,71
666,414	7,74
