Data from zc_m2_p3_Reflection_6,txt Node
Date: Wed Nov 25 16:47:37 GMT-03:00 2020
User: Darío
Spectrometer: USB2E3644
Trigger mode: 4
Integration Time (sec): 9,000000E-2
Scans to average: 10
Electric dark correction enabled: true
Nonlinearity correction enabled: false
Boxcar width: 10
XAxis mode: Wavelengths
Number of Pixels in Spectrum: 2048
>>>>>Begin Spectral Data<<<<<
178,315	167,43
178,696	111,84
179,076	93,91
179,457	71,31
179,838	84,21
180,218	95,11
180,599	76,68
180,979	36,36
181,36	51,23
181,74	33,82
182,121	122,39
182,501	108,63
182,881	113,73
183,262	101,74
183,642	108,24
184,022	116,51
184,402	127,98
184,783	135,63
185,163	125,82
185,543	124,77
185,923	124,98
186,303	119,76
186,683	113,85
187,063	109,94
187,443	109,01
187,823	109,93
188,203	107,52
188,583	106,66
188,963	107,15
189,343	106,27
189,723	106,82
190,102	108,21
190,482	109,43
190,862	110,7
191,242	112,4
191,621	114,34
192,001	112,13
192,38	107,83
192,76	105,33
193,14	105,13
193,519	103,39
193,898	102,74
194,278	101,93
194,657	102,68
195,037	103,34
195,416	102,99
195,795	103,28
196,175	105,2
196,554	106,33
196,933	107,74
197,312	107,45
197,692	106,73
198,071	104,46
198,45	101,45
198,829	99,26
199,208	98,16
199,587	97,47
199,966	98,28
200,345	99,56
200,724	99,95
201,103	99,76
201,482	100,24
201,86	99,95
202,239	101,03
202,618	100,94
202,997	101,35
203,375	101,77
203,754	100,86
204,133	100,36
204,511	99,54
204,89	99,01
205,269	99,62
205,647	100,16
206,026	103,88
206,404	108,39
206,782	111,39
207,161	112,56
207,539	111,85
207,918	112,11
208,296	111,57
208,674	111,95
209,052	111,72
209,431	112,23
209,809	113,47
210,187	112,41
210,565	112,84
210,943	113,05
211,321	112,11
211,699	113,92
212,077	114,62
212,455	115,39
212,833	115,27
213,211	113,9
213,589	113,52
213,967	110,47
214,345	106,92
214,722	103,97
215,1	101,66
215,478	101,78
215,855	101,93
216,233	102,01
216,611	101,34
216,988	104,01
217,366	107,27
217,743	108,85
218,121	110,67
218,498	111,68
218,876	111,81
219,253	113,63
219,631	113,37
220,008	113,33
220,385	114,04
220,762	115,32
221,14	117,33
221,517	119,83
221,894	123,05
222,271	127,02
222,648	129,78
223,025	132,62
223,402	134,16
223,78	132,66
224,157	133,01
224,533	136,61
224,91	137,79
225,287	136,63
225,664	136,31
226,041	138,22
226,418	140,22
226,795	144,48
227,171	144,16
227,548	148,87
227,925	154,99
228,301	155,53
228,678	153,53
229,055	156,17
229,431	158,48
229,808	155,55
230,184	156,98
230,561	161,13
230,937	166,41
231,313	171,04
231,69	180,85
232,066	189,24
232,442	193,99
232,819	197,68
233,195	203,71
233,571	209,65
233,947	206,5
234,323	207,27
234,699	212,18
235,075	225,9
235,451	231,32
235,827	231,75
236,203	232,88
236,579	249,65
236,955	265,14
237,331	284,43
237,707	333,5
238,083	402,33
238,459	514,17
238,834	905,37
239,21	4584,35
239,586	-1702,89
239,961	-1018,6
240,337	-824,81
240,713	-559,74
241,088	-399,2
241,464	-332,47
241,839	-273,05
242,215	-220,99
242,59	-173,54
242,965	-130,91
243,341	-97,47
243,716	-77,4
244,091	-66,01
244,467	-57,8
244,842	-52,32
245,217	-49,45
245,592	-47,91
245,967	-48,74
246,343	-47,91
246,718	-48,74
247,093	-49,75
247,468	-49,61
247,843	-48,49
248,218	-46,19
248,593	-45,73
248,967	-44,99
249,342	-44,07
249,717	-44,33
250,092	-44,56
250,467	-45,18
250,841	-47,34
251,216	-52,36
251,591	-58,3
251,965	-63,84
252,34	-69,68
252,714	-74,29
253,089	-76,61
253,463	-76,01
253,838	-72,04
254,212	-69,63
254,587	-66,8
254,961	-63,54
255,335	-59,02
255,71	-51,4
256,084	-42,59
256,458	-35,36
256,832	-29,8
257,206	-27,15
257,581	-25,28
257,955	-24,59
258,329	-23,69
258,703	-22,92
259,077	-21,92
259,451	-20,84
259,825	-20,21
260,199	-19,86
260,572	-20,11
260,946	-20,67
261,32	-21,51
261,694	-21,53
262,068	-21,81
262,441	-21,25
262,815	-20,34
263,189	-19,95
263,562	-19,82
263,936	-20,67
264,309	-22,03
264,683	-24,34
265,056	-25,17
265,43	-24,87
265,803	-23,79
266,176	-23,04
266,55	-22,24
266,923	-21,38
267,296	-21,08
267,67	-20,64
268,043	-20,46
268,416	-19,52
268,789	-18,05
269,162	-16,22
269,535	-14,91
269,908	-13,94
270,281	-13,4
270,654	-13,33
271,027	-13,61
271,4	-14,33
271,773	-14,87
272,146	-15,63
272,519	-15,7
272,891	-15,91
273,264	-16,41
273,637	-16,69
274,01	-16,83
274,382	-17,14
274,755	-17,21
275,127	-17,33
275,5	-17,54
275,872	-17,09
276,245	-16,79
276,617	-16,98
276,99	-17,88
277,362	-18,83
277,734	-18,52
278,107	-18,7
278,479	-17,93
278,851	-17,1
279,223	-16,17
279,596	-15,52
279,968	-14,76
280,34	-14,2
280,712	-14,14
281,084	-13,63
281,456	-13,17
281,828	-12,89
282,2	-12,29
282,572	-11,71
282,944	-11,12
283,315	-10,65
283,687	-10,33
284,059	-9,94
284,431	-9,52
284,802	-9,07
285,174	-8,86
285,546	-8,92
285,917	-8,85
286,289	-9,04
286,66	-9
287,032	-8,97
287,403	-8,89
287,775	-8,53
288,146	-8,48
288,518	-8,26
288,889	-8,18
289,26	-8,19
289,632	-8,17
290,003	-8,43
290,374	-8,89
290,745	-9,2
291,116	-9,21
291,487	-9,19
291,858	-9,31
292,229	-9,15
292,6	-8,68
292,971	-8,19
293,342	-7,73
293,713	-7
294,084	-6,71
294,455	-6,51
294,826	-6,43
295,196	-6,12
295,567	-5,92
295,938	-5,73
296,308	-5,57
296,679	-5,45
297,05	-5,32
297,42	-5,2
297,791	-4,72
298,161	-4,45
298,532	-4,2
298,902	-3,93
299,272	-3,69
299,643	-3,47
300,013	-3,44
300,383	-3,51
300,754	-3,68
301,124	-4,01
301,494	-4,38
301,864	-4,38
302,234	-4,56
302,604	-4,56
302,974	-4,8
303,344	-5,09
303,714	-5,33
304,084	-5,27
304,454	-4,99
304,824	-4,94
305,194	-5,02
305,563	-5,16
305,933	-4,99
306,303	-4,69
306,673	-4,48
307,042	-4,57
307,412	-4,79
307,781	-4,75
308,151	-4,63
308,521	-4,42
308,89	-4,14
309,259	-3,84
309,629	-3,78
309,998	-3,63
310,368	-3,52
310,737	-3,36
311,106	-3,36
311,475	-3,15
311,845	-3,06
312,214	-3,1
312,583	-3,11
312,952	-2,83
313,321	-2,85
313,69	-2,96
314,059	-3,02
314,428	-3,06
314,797	-2,97
315,166	-2,88
315,535	-2,89
315,904	-3
316,272	-3,08
316,641	-2,95
317,01	-3,03
317,379	-3
317,747	-3,04
318,116	-3,14
318,484	-3,23
318,853	-3,18
319,221	-3,2
319,59	-3,12
319,958	-3,17
320,327	-3,02
320,695	-3,14
321,063	-3,07
321,432	-2,92
321,8	-2,91
322,168	-2,97
322,536	-3,01
322,905	-3,02
323,273	-2,94
323,641	-2,71
324,009	-2,54
324,377	-2,43
324,745	-2,29
325,113	-1,99
325,481	-1,74
325,849	-1,6
326,216	-1,41
326,584	-1,26
326,952	-1,17
327,32	-1,22
327,687	-1,14
328,055	-1,1
328,423	-0,92
328,79	-0,84
329,158	-0,89
329,525	-0,73
329,893	-0,54
330,26	-0,26
330,628	-0,1
330,995	0,01
331,362	0,11
331,73	0,17
332,097	0,04
332,464	-0,05
332,831	-0,17
333,199	-0,11
333,566	0
333,933	0,08
334,3	0,07
334,667	0,13
335,034	0,13
335,401	0,08
335,768	0,08
336,135	0,02
336,502	0,04
336,868	0,22
337,235	0,24
337,602	0,32
337,969	0,25
338,335	0,32
338,702	0,32
339,069	0,28
339,435	0,32
339,802	0,44
340,168	0,56
340,535	0,71
340,901	0,74
341,267	0,68
341,634	0,72
342	0,78
342,366	0,81
342,733	0,89
343,099	0,99
343,465	1,08
343,831	1,23
344,197	1,38
344,563	1,43
344,929	1,46
345,295	1,43
345,661	1,5
346,027	1,51
346,393	1,6
346,759	1,74
347,125	1,77
347,491	1,85
347,856	1,93
348,222	1,94
348,588	1,98
348,953	2,15
349,319	2,26
349,684	2,34
350,05	2,33
350,415	2,39
350,781	2,48
351,146	2,58
351,512	2,59
351,877	2,55
352,242	2,54
352,608	2,62
352,973	2,66
353,338	2,7
353,703	2,79
354,068	2,81
354,433	2,77
354,798	2,85
355,164	2,78
355,528	2,78
355,893	2,76
356,258	2,75
356,623	2,7
356,988	2,64
357,353	2,67
357,718	2,75
358,082	2,83
358,447	2,86
358,812	2,89
359,176	2,97
359,541	3,09
359,905	3,19
360,27	3,18
360,634	3,21
360,999	3,21
361,363	3,27
361,728	3,32
362,092	3,38
362,456	3,43
362,821	3,55
363,185	3,6
363,549	3,62
363,913	3,71
364,277	3,81
364,641	3,94
365,005	3,96
365,369	3,99
365,733	4,02
366,097	4,09
366,461	4,11
366,825	4,13
367,189	4,15
367,553	4,2
367,916	4,33
368,28	4,43
368,644	4,54
369,007	4,63
369,371	4,69
369,734	4,84
370,098	4,97
370,461	5,09
370,825	5,22
371,188	5,35
371,552	5,46
371,915	5,53
372,278	5,57
372,642	5,71
373,005	5,74
373,368	5,76
373,731	5,83
374,094	5,87
374,457	5,94
374,82	6,05
375,183	6,14
375,546	6,21
375,909	6,29
376,272	6,35
376,635	6,45
376,998	6,54
377,361	6,53
377,723	6,52
378,086	6,48
378,449	6,55
378,811	6,59
379,174	6,61
379,537	6,67
379,899	6,73
380,262	6,73
380,624	6,83
380,987	6,9
381,349	6,94
381,711	7
382,074	7,01
382,436	7,01
382,798	7,12
383,16	7,14
383,522	7,13
383,884	7,19
384,247	7,14
384,609	7,16
384,971	7,21
385,333	7,23
385,695	7,31
386,056	7,27
386,418	7,28
386,78	7,33
387,142	7,31
387,504	7,26
387,865	7,26
388,227	7,23
388,589	7,28
388,95	7,29
389,312	7,31
389,673	7,34
390,035	7,34
390,396	7,25
390,758	7,26
391,119	7,27
391,48	7,27
391,842	7,29
392,203	7,28
392,564	7,28
392,925	7,3
393,286	7,29
393,648	7,29
394,009	7,3
394,37	7,3
394,731	7,34
395,092	7,41
395,452	7,42
395,813	7,47
396,174	7,49
396,535	7,53
396,896	7,54
397,257	7,58
397,617	7,64
397,978	7,71
398,338	7,71
398,699	7,75
399,06	7,78
399,42	7,81
399,781	7,82
400,141	7,83
400,501	7,82
400,862	7,85
401,222	7,88
401,582	7,91
401,943	7,9
402,303	7,9
402,663	7,88
403,023	7,91
403,383	7,91
403,743	7,88
404,103	7,86
404,463	7,85
404,823	7,87
405,183	7,89
405,543	7,9
405,903	7,95
406,262	7,95
406,622	7,93
406,982	7,92
407,342	7,95
407,701	7,98
408,061	8,03
408,42	8,03
408,78	8,04
409,139	8,05
409,499	8,05
409,858	8,07
410,217	8,1
410,577	8,11
410,936	8,14
411,295	8,16
411,655	8,17
412,014	8,17
412,373	8,11
412,732	8,06
413,091	8,02
413,45	7,96
413,809	7,93
414,168	7,9
414,527	7,83
414,886	7,78
415,245	7,73
415,603	7,7
415,962	7,68
416,321	7,64
416,679	7,57
417,038	7,53
417,397	7,48
417,755	7,42
418,114	7,37
418,472	7,35
418,831	7,32
419,189	7,3
419,547	7,28
419,906	7,26
420,264	7,25
420,622	7,24
420,981	7,23
421,339	7,22
421,697	7,22
422,055	7,25
422,413	7,26
422,771	7,25
423,129	7,26
423,487	7,27
423,845	7,3
424,203	7,34
424,56	7,37
424,918	7,41
425,276	7,46
425,634	7,51
425,991	7,54
426,349	7,57
426,707	7,62
427,064	7,65
427,422	7,7
427,779	7,76
428,137	7,81
428,494	7,88
428,851	7,93
429,209	7,96
429,566	7,97
429,923	7,96
430,28	8
430,637	8,01
430,995	8,01
431,352	7,99
431,709	7,98
432,066	8
432,423	8,01
432,78	8,03
433,137	8,03
433,493	8,04
433,85	8,05
434,207	8
434,564	8,01
434,92	8,01
435,277	7,99
435,634	7,97
435,99	7,95
436,347	7,92
436,703	7,91
437,06	7,92
437,416	7,93
437,773	7,91
438,129	7,89
438,485	7,9
438,841	7,89
439,198	7,9
439,554	7,9
439,91	7,91
440,266	7,9
440,622	7,89
440,978	7,88
441,334	7,87
441,69	7,88
442,046	7,87
442,402	7,85
442,758	7,84
443,113	7,83
443,469	7,83
443,825	7,85
444,181	7,85
444,536	7,86
444,892	7,86
445,247	7,88
445,603	7,91
445,958	7,92
446,314	7,94
446,669	7,95
447,025	7,95
447,38	7,96
447,735	7,97
448,09	7,97
448,446	7,99
448,801	8
449,156	8,02
449,511	8,05
449,866	8,1
450,221	8,15
450,576	8,19
450,931	8,24
451,286	8,29
451,641	8,32
451,995	8,33
452,35	8,37
452,705	8,38
453,06	8,39
453,414	8,39
453,769	8,4
454,123	8,4
454,478	8,39
454,832	8,41
455,187	8,39
455,541	8,37
455,896	8,35
456,25	8,33
456,604	8,32
456,958	8,32
457,313	8,31
457,667	8,28
458,021	8,29
458,375	8,3
458,729	8,3
459,083	8,31
459,437	8,32
459,791	8,31
460,145	8,33
460,499	8,33
460,852	8,34
461,206	8,35
461,56	8,34
461,914	8,35
462,267	8,34
462,621	8,36
462,974	8,39
463,328	8,42
463,681	8,46
464,035	8,47
464,388	8,48
464,742	8,51
465,095	8,54
465,448	8,57
465,801	8,55
466,155	8,55
466,508	8,55
466,861	8,56
467,214	8,58
467,567	8,58
467,92	8,56
468,273	8,56
468,626	8,56
468,979	8,57
469,332	8,57
469,684	8,58
470,037	8,6
470,39	8,61
470,743	8,61
471,095	8,62
471,448	8,65
471,8	8,65
472,153	8,66
472,505	8,69
472,858	8,68
473,21	8,71
473,562	8,73
473,915	8,74
474,267	8,75
474,619	8,76
474,971	8,75
475,324	8,77
475,676	8,8
476,028	8,8
476,38	8,82
476,732	8,83
477,084	8,83
477,436	8,83
477,787	8,82
478,139	8,82
478,491	8,82
478,843	8,8
479,195	8,78
479,546	8,75
479,898	8,67
480,249	8,59
480,601	8,55
480,952	8,51
481,304	8,48
481,655	8,47
482,007	8,45
482,358	8,46
482,709	8,46
483,061	8,45
483,412	8,44
483,763	8,42
484,114	8,41
484,465	8,4
484,816	8,38
485,167	8,38
485,518	8,39
485,869	8,38
486,22	8,39
486,571	8,4
486,922	8,41
487,272	8,43
487,623	8,46
487,974	8,47
488,324	8,49
488,675	8,51
489,025	8,52
489,376	8,52
489,726	8,51
490,077	8,53
490,427	8,54
490,778	8,57
491,128	8,6
491,478	8,62
491,828	8,67
492,179	8,7
492,529	8,73
492,879	8,73
493,229	8,75
493,579	8,76
493,929	8,76
494,279	8,77
494,629	8,77
494,979	8,77
495,328	8,82
495,678	8,86
496,028	8,89
496,378	8,93
496,727	8,96
497,077	8,99
497,426	9
497,776	9
498,125	9,01
498,475	9,01
498,824	9,02
499,174	9,03
499,523	9,04
499,872	9,05
500,221	9,07
500,571	9,08
500,92	9,1
501,269	9,11
501,618	9,11
501,967	9,12
502,316	9,15
502,665	9,17
503,014	9,19
503,363	9,19
503,711	9,21
504,06	9,21
504,409	9,22
504,758	9,21
505,106	9,21
505,455	9,2
505,803	9,19
506,152	9,2
506,5	9,2
506,849	9,19
507,197	9,2
507,546	9,2
507,894	9,21
508,242	9,21
508,59	9,2
508,939	9,2
509,287	9,23
509,635	9,23
509,983	9,22
510,331	9,21
510,679	9,24
511,027	9,24
511,375	9,27
511,723	9,28
512,07	9,29
512,418	9,3
512,766	9,34
513,114	9,37
513,461	9,37
513,809	9,39
514,156	9,38
514,504	9,39
514,851	9,37
515,199	9,35
515,546	9,36
515,893	9,34
516,241	9,35
516,588	9,33
516,935	9,35
517,282	9,35
517,63	9,37
517,977	9,35
518,324	9,36
518,671	9,36
519,018	9,35
519,365	9,36
519,711	9,37
520,058	9,35
520,405	9,33
520,752	9,35
521,099	9,36
521,445	9,38
521,792	9,38
522,138	9,39
522,485	9,41
522,832	9,41
523,178	9,43
523,524	9,43
523,871	9,44
524,217	9,42
524,563	9,4
524,91	9,35
525,256	9,33
525,602	9,3
525,948	9,29
526,294	9,28
526,64	9,27
526,986	9,26
527,332	9,25
527,678	9,25
528,024	9,25
528,37	9,26
528,716	9,24
529,061	9,25
529,407	9,26
529,753	9,26
530,098	9,26
530,444	9,26
530,789	9,26
531,135	9,26
531,48	9,28
531,826	9,29
532,171	9,32
532,516	9,37
532,862	9,41
533,207	9,41
533,552	9,43
533,897	9,45
534,242	9,48
534,587	9,51
534,932	9,54
535,277	9,55
535,622	9,53
535,967	9,55
536,312	9,56
536,657	9,58
537,001	9,6
537,346	9,62
537,691	9,61
538,035	9,61
538,38	9,6
538,724	9,59
539,069	9,59
539,413	9,57
539,758	9,55
540,102	9,54
540,446	9,54
540,791	9,55
541,135	9,55
541,479	9,55
541,823	9,53
542,167	9,51
542,512	9,54
542,856	9,53
543,2	9,53
543,543	9,54
543,887	9,54
544,231	9,55
544,575	9,56
544,919	9,6
545,262	9,62
545,606	9,64
545,95	9,66
546,293	9,68
546,637	9,71
546,98	9,75
547,324	9,76
547,667	9,78
548,011	9,8
548,354	9,81
548,697	9,81
549,04	9,82
549,384	9,83
549,727	9,81
550,07	9,86
550,413	9,86
550,756	9,85
551,099	9,85
551,442	9,83
551,785	9,84
552,128	9,84
552,47	9,84
552,813	9,85
553,156	9,84
553,499	9,83
553,841	9,82
554,184	9,8
554,526	9,8
554,869	9,8
555,211	9,78
555,554	9,76
555,896	9,76
556,238	9,78
556,581	9,76
556,923	9,74
557,265	9,71
557,607	9,72
557,949	9,72
558,291	9,73
558,633	9,71
558,975	9,66
559,317	9,62
559,659	9,6
560,001	9,58
560,343	9,59
560,685	9,6
561,026	9,57
561,368	9,57
561,71	9,54
562,051	9,54
562,393	9,55
562,734	9,55
563,076	9,52
563,417	9,5
563,759	9,5
564,1	9,51
564,441	9,52
564,782	9,48
565,124	9,46
565,465	9,44
565,806	9,43
566,147	9,45
566,488	9,46
566,829	9,46
567,17	9,46
567,511	9,43
567,851	9,41
568,192	9,41
568,533	9,39
568,874	9,39
569,214	9,35
569,555	9,35
569,895	9,35
570,236	9,34
570,576	9,33
570,917	9,31
571,257	9,28
571,598	9,25
571,938	9,26
572,278	9,24
572,618	9,22
572,959	9,22
573,299	9,23
573,639	9,22
573,979	9,19
574,319	9,18
574,659	9,19
574,999	9,19
575,339	9,17
575,678	9,16
576,018	9,12
576,358	9,12
576,698	9,08
577,037	9,06
577,377	9,06
577,716	9,05
578,056	9,03
578,395	9,05
578,735	9,03
579,074	8,99
579,413	8,99
579,753	8,99
580,092	8,97
580,431	8,95
580,77	8,93
581,109	8,94
581,448	8,92
581,787	8,91
582,126	8,88
582,465	8,89
582,804	8,93
583,143	8,98
583,482	8,99
583,82	8,99
584,159	8,96
584,498	8,98
584,836	8,97
585,175	8,98
585,514	8,96
585,852	8,99
586,19	9,04
586,529	9,05
586,867	9,06
587,205	9,09
587,544	9,1
587,882	9,08
588,22	9,09
588,558	9,1
588,896	9,11
589,234	9,13
589,572	9,14
589,91	9,14
590,248	9,11
590,586	9,1
590,924	9,12
591,262	9,15
591,599	9,12
591,937	9,13
592,275	9,14
592,612	9,13
592,95	9,13
593,287	9,14
593,625	9,16
593,962	9,17
594,299	9,18
594,637	9,21
594,974	9,23
595,311	9,24
595,648	9,26
595,985	9,25
596,322	9,27
596,659	9,26
596,996	9,26
597,333	9,27
597,67	9,27
598,007	9,28
598,344	9,27
598,681	9,28
599,017	9,27
599,354	9,26
599,691	9,27
600,027	9,29
600,364	9,29
600,7	9,28
601,037	9,31
601,373	9,34
601,71	9,35
602,046	9,41
602,382	9,44
602,718	9,45
603,054	9,46
603,391	9,45
603,727	9,44
604,063	9,46
604,399	9,47
604,735	9,49
605,071	9,5
605,406	9,53
605,742	9,57
606,078	9,6
606,414	9,62
606,749	9,64
607,085	9,65
607,421	9,66
607,756	9,68
608,092	9,68
608,427	9,66
608,762	9,65
609,098	9,61
609,433	9,58
609,768	9,57
610,104	9,57
610,439	9,57
610,774	9,59
611,109	9,58
611,444	9,57
611,779	9,6
612,114	9,59
612,449	9,58
612,784	9,54
613,118	9,54
613,453	9,54
613,788	9,52
614,123	9,49
614,457	9,48
614,792	9,48
615,126	9,46
615,461	9,41
615,795	9,39
616,13	9,39
616,464	9,39
616,798	9,42
617,132	9,44
617,467	9,47
617,801	9,48
618,135	9,5
618,469	9,52
618,803	9,51
619,137	9,5
619,471	9,49
619,805	9,5
620,139	9,5
620,472	9,51
620,806	9,53
621,14	9,54
621,473	9,53
621,807	9,5
622,141	9,53
622,474	9,58
622,808	9,62
623,141	9,66
623,474	9,71
623,808	9,72
624,141	9,72
624,474	9,74
624,807	9,71
625,141	9,69
625,474	9,68
625,807	9,68
626,14	9,67
626,473	9,69
626,806	9,72
627,138	9,73
627,471	9,74
627,804	9,7
628,137	9,72
628,469	9,73
628,802	9,75
629,135	9,76
629,467	9,78
629,8	9,77
630,132	9,73
630,465	9,69
630,797	9,7
631,129	9,68
631,461	9,64
631,794	9,69
632,126	9,7
632,458	9,7
632,79	9,74
633,122	9,77
633,454	9,75
633,786	9,75
634,118	9,76
634,45	9,79
634,781	9,83
635,113	9,82
635,445	9,85
635,777	9,86
636,108	9,82
636,44	9,79
636,771	9,82
637,103	9,88
637,434	9,88
637,765	9,88
638,097	9,88
638,428	9,86
638,759	9,8
639,09	9,84
639,422	9,84
639,753	9,85
640,084	9,86
640,415	9,88
640,746	9,88
641,077	9,85
641,407	9,83
641,738	9,81
642,069	9,83
642,4	9,8
642,73	9,76
643,061	9,78
643,392	9,81
643,722	9,77
644,053	9,71
644,383	9,7
644,713	9,72
645,044	9,72
645,374	9,74
645,704	9,78
646,034	9,77
646,365	9,8
646,695	9,79
647,025	9,78
647,355	9,77
647,685	9,79
648,015	9,82
648,344	9,84
648,674	9,85
649,004	9,84
649,334	9,86
649,663	9,9
649,993	9,93
650,323	9,94
650,652	9,97
650,982	10
651,311	10,03
651,64	10
651,97	10,01
652,299	10,03
652,628	10,03
652,958	10,04
653,287	10,06
653,616	10,06
653,945	10,04
654,274	10,07
654,603	10,1
654,932	10,11
655,261	10,12
655,589	10,12
655,918	10,14
656,247	10,23
656,576	10,3
656,904	10,35
657,233	10,41
657,561	10,45
657,89	10,49
658,218	10,52
658,547	10,55
658,875	10,6
659,203	10,58
659,532	10,58
659,86	10,61
660,188	10,58
660,516	10,57
660,844	10,6
661,172	10,61
661,5	10,58
661,828	10,59
662,156	10,59
662,484	10,6
662,811	10,59
663,139	10,53
663,467	10,5
663,794	10,48
664,122	10,41
664,45	10,41
664,777	10,42
665,104	10,48
665,432	10,46
