Data from zc_m3_p1_Reflection_1,txt Node
Date: Wed Nov 25 16:52:23 GMT-03:00 2020
User: Darío
Spectrometer: USB2E3644
Trigger mode: 4
Integration Time (sec): 9,000000E-2
Scans to average: 10
Electric dark correction enabled: true
Nonlinearity correction enabled: false
Boxcar width: 10
XAxis mode: Wavelengths
Number of Pixels in Spectrum: 2048
>>>>>Begin Spectral Data<<<<<
178,315	61,15
178,696	52,17
179,076	48,44
179,457	39,1
179,838	48,78
180,218	57,81
180,599	81,25
180,979	34,55
181,36	-380
181,74	329,41
182,121	173,08
182,501	125
182,881	118,81
183,262	124,79
183,642	128,68
184,022	136,73
184,402	125
184,783	122,82
185,163	114,77
185,543	116,04
185,923	118,29
186,303	121,92
186,683	122,8
187,063	121,46
187,443	120,37
187,823	120,26
188,203	121,88
188,583	123,61
188,963	122,46
189,343	121,21
189,723	121,86
190,102	120,34
190,482	119,38
190,862	118,6
191,242	116,77
191,621	118,69
192,001	117,93
192,38	117,72
192,76	118,01
193,14	117,66
193,519	116,6
193,898	116,99
194,278	116,88
194,657	116,13
195,037	117,98
195,416	118,72
195,795	117,34
196,175	116,25
196,554	118,96
196,933	122,71
197,312	122,41
197,692	121
198,071	122,31
198,45	124,44
198,829	123,89
199,208	124,15
199,587	122,6
199,966	121,86
200,345	123,91
200,724	123,53
201,103	123,91
201,482	121,9
201,86	119,34
202,239	117,43
202,618	115,71
202,997	114,24
203,375	112,9
203,754	113,1
204,133	112,77
204,511	111,32
204,89	108,08
205,269	106,11
205,647	104,81
206,026	103,88
206,404	104,31
206,782	105,52
207,161	105,56
207,539	106,58
207,918	107,28
208,296	107,58
208,674	105,77
209,052	105,05
209,431	106,06
209,809	106,75
210,187	107,13
210,565	109,34
210,943	111,34
211,321	113,01
211,699	114,18
212,077	114,87
212,455	115,77
212,833	117,66
213,211	118,97
213,589	119,69
213,967	118,82
214,345	115,88
214,722	115,64
215,1	114,29
215,478	112,5
215,855	111,3
216,233	110,94
216,611	112,34
216,988	113,4
217,366	114,02
217,743	114,04
218,121	113,59
218,498	111,95
218,876	109,77
219,253	109,66
219,631	108,65
220,008	107,23
220,385	105,36
220,762	104,63
221,14	105,15
221,517	106,64
221,894	109,49
222,271	110,77
222,648	113
223,025	116,47
223,402	117,55
223,78	120,34
224,157	120,71
224,533	124,65
224,91	126,65
225,287	127,42
225,664	132,14
226,041	136,64
226,418	141,19
226,795	141,37
227,171	141,75
227,548	146,28
227,925	151,03
228,301	154,97
228,678	160,35
229,055	159,39
229,431	161,78
229,808	159,96
230,184	161,66
230,561	160,31
230,937	161,5
231,313	161,45
231,69	162,61
232,066	163,55
232,442	164,25
232,819	164,3
233,195	163,03
233,571	163,27
233,947	164,24
234,323	164,33
234,699	170,99
235,075	173,67
235,451	177,23
235,827	179,95
236,203	182,95
236,579	180,35
236,955	188,65
237,331	200,85
237,707	222,76
238,083	256,09
238,459	303,43
238,834	375
239,21	537,04
239,586	918,99
239,961	2236,36
240,337	5421,43
240,713	-2328,13
241,088	-905
241,464	-614,66
241,839	-445,22
242,215	-298,67
242,59	-215,58
242,965	-150,58
243,341	-105,82
243,716	-79,98
244,091	-67,43
244,467	-58,42
244,842	-52,46
245,217	-49,06
245,592	-47,25
245,967	-46,8
246,343	-45,12
246,718	-45,42
247,093	-46,76
247,468	-47,22
247,843	-46,92
248,218	-44,62
248,593	-44,6
248,967	-43,5
249,342	-43,35
249,717	-43,24
250,092	-43,65
250,467	-43,93
250,841	-46,34
251,216	-51,27
251,591	-57,36
251,965	-63,28
252,34	-69,49
252,714	-72,36
253,089	-73,07
253,463	-71,62
253,838	-68,63
254,212	-65,84
254,587	-62,65
254,961	-59,38
255,335	-54,23
255,71	-46,18
256,084	-37,38
256,458	-30,55
256,832	-25,76
257,206	-22,56
257,581	-20,68
257,955	-19,58
258,329	-19,27
258,703	-18,22
259,077	-17,17
259,451	-16,81
259,825	-16,88
260,199	-16,61
260,572	-17,33
260,946	-18,16
261,32	-18,82
261,694	-18,73
262,068	-19,02
262,441	-18,32
262,815	-17,11
263,189	-16,55
263,562	-16,55
263,936	-17,67
264,309	-18,84
264,683	-20,39
265,056	-21,35
265,43	-20,75
265,803	-20,44
266,176	-19,83
266,55	-19,7
266,923	-19,23
267,296	-18,75
267,67	-18,18
268,043	-17,98
268,416	-17,03
268,789	-15,68
269,162	-13,96
269,535	-12,42
269,908	-11,09
270,281	-10,75
270,654	-10,84
271,027	-10,95
271,4	-11,49
271,773	-11,75
272,146	-12,2
272,519	-12,55
272,891	-12,58
273,264	-13,33
273,637	-13,54
274,01	-13,44
274,382	-13,74
274,755	-14,17
275,127	-14,61
275,5	-14,45
275,872	-13,87
276,245	-13,56
276,617	-13,78
276,99	-14,78
277,362	-16
277,734	-16,35
278,107	-16,33
278,479	-15,51
278,851	-15,1
279,223	-14,26
279,596	-13,9
279,968	-13,27
280,34	-12,81
280,712	-12,76
281,084	-12,41
281,456	-12,17
281,828	-11,79
282,2	-10,89
282,572	-10,04
282,944	-9,04
283,315	-8,54
283,687	-8,23
284,059	-7,9
284,431	-7,45
284,802	-6,83
285,174	-6,37
285,546	-6,14
285,917	-6,06
286,289	-6,31
286,66	-6,23
287,032	-6,03
287,403	-5,79
287,775	-5,45
288,146	-5,38
288,518	-5,16
288,889	-5,04
289,26	-4,71
289,632	-4,72
290,003	-5,05
290,374	-5,6
290,745	-5,98
291,116	-6,13
291,487	-6,29
291,858	-6,52
292,229	-6,7
292,6	-6,42
292,971	-6,18
293,342	-6,01
293,713	-5,56
294,084	-5,29
294,455	-5,08
294,826	-5,07
295,196	-5
295,567	-4,95
295,938	-4,75
296,308	-4,56
296,679	-4,23
297,05	-4,11
297,42	-4,08
297,791	-3,58
298,161	-3,13
298,532	-2,91
298,902	-2,78
299,272	-2,65
299,643	-2,44
300,013	-2,21
300,383	-2,19
300,754	-2,14
301,124	-2,24
301,494	-2,49
301,864	-2,57
302,234	-2,49
302,604	-2,21
302,974	-1,89
303,344	-1,99
303,714	-1,92
304,084	-1,97
304,454	-1,89
304,824	-1,88
305,194	-1,98
305,563	-2,25
305,933	-2,13
306,303	-1,9
306,673	-1,68
307,042	-1,67
307,412	-1,7
307,781	-1,37
308,151	-1,16
308,521	-0,94
308,89	-0,71
309,259	-0,46
309,629	-0,28
309,998	-0,2
310,368	-0,27
310,737	-0,37
311,106	-0,37
311,475	-0,42
311,845	-0,38
312,214	-0,6
312,583	-0,72
312,952	-0,65
313,321	-0,44
313,69	-0,48
314,059	-0,52
314,428	-0,36
314,797	-0,09
315,166	0,12
315,535	-0,01
315,904	-0,21
316,272	-0,59
316,641	-0,51
317,01	-0,44
317,379	-0,21
317,747	-0,16
318,116	-0,08
318,484	-0,07
318,853	-0,03
319,221	0,01
319,59	0,17
319,958	0,36
320,327	0,64
320,695	0,98
321,063	1,1
321,432	1,23
321,8	1,31
322,168	1,19
322,536	1,07
322,905	0,89
323,273	0,78
323,641	0,85
324,009	1,06
324,377	1,05
324,745	1,13
325,113	1,29
325,481	1,36
325,849	1,26
326,216	1,28
326,584	1,37
326,952	1,49
327,32	1,61
327,687	1,75
328,055	1,82
328,423	1,9
328,79	1,93
329,158	1,88
329,525	1,75
329,893	1,8
330,26	2
330,628	2,21
330,995	2,45
331,362	2,56
331,73	2,69
332,097	2,8
332,464	2,83
332,831	2,74
333,199	2,86
333,566	3
333,933	3,18
334,3	3,28
334,667	3,52
335,034	3,58
335,401	3,65
335,768	3,73
336,135	3,73
336,502	3,81
336,868	4,01
337,235	4,29
337,602	4,45
337,969	4,57
338,335	4,71
338,702	4,75
339,069	4,81
339,435	4,91
339,802	4,91
340,168	4,97
340,535	4,93
340,901	4,91
341,267	4,98
341,634	5,07
342	5,11
342,366	5,07
342,733	4,97
343,099	5,01
343,465	5,08
343,831	5,16
344,197	5,18
344,563	5,21
344,929	5,23
345,295	5,2
345,661	5,24
346,027	5,26
346,393	5,42
346,759	5,6
347,125	5,6
347,491	5,74
347,856	5,84
348,222	6,04
348,588	6,16
348,953	6,23
349,319	6,29
349,684	6,44
350,05	6,44
350,415	6,56
350,781	6,58
351,146	6,59
351,512	6,67
351,877	6,7
352,242	6,78
352,608	6,79
352,973	6,83
353,338	6,76
353,703	6,73
354,068	6,58
354,433	6,5
354,798	6,48
355,164	6,38
355,528	6,4
355,893	6,41
356,258	6,49
356,623	6,51
356,988	6,47
357,353	6,46
357,718	6,57
358,082	6,71
358,447	6,78
358,812	6,84
359,176	6,9
359,541	7,02
359,905	7,07
360,27	7,11
360,634	7,18
360,999	7,26
361,363	7,39
361,728	7,5
362,092	7,64
362,456	7,76
362,821	7,82
363,185	7,87
363,549	7,92
363,913	7,92
364,277	8,08
364,641	8,25
365,005	8,34
365,369	8,34
365,733	8,32
366,097	8,45
366,461	8,48
366,825	8,52
367,189	8,54
367,553	8,6
367,916	8,73
368,28	8,84
368,644	8,92
369,007	9,03
369,371	9,06
369,734	9,07
370,098	9,2
370,461	9,34
370,825	9,45
371,188	9,48
371,552	9,58
371,915	9,56
372,278	9,56
372,642	9,63
373,005	9,74
373,368	9,82
373,731	9,85
374,094	9,93
374,457	10,02
374,82	10,11
375,183	10,18
375,546	10,2
375,909	10,24
376,272	10,33
376,635	10,35
376,998	10,45
377,361	10,51
377,723	10,49
378,086	10,52
378,449	10,58
378,811	10,68
379,174	10,74
379,537	10,86
379,899	10,95
380,262	11,01
380,624	11,09
380,987	11,17
381,349	11,24
381,711	11,35
382,074	11,34
382,436	11,42
382,798	11,56
383,16	11,61
383,522	11,68
383,884	11,68
384,247	11,74
384,609	11,8
384,971	11,85
385,333	11,89
385,695	11,93
386,056	11,93
386,418	11,95
386,78	11,94
387,142	11,93
387,504	11,91
387,865	11,91
388,227	11,9
388,589	11,91
388,95	11,92
389,312	11,88
389,673	11,92
390,035	11,89
390,396	11,81
390,758	11,79
391,119	11,8
391,48	11,82
391,842	11,86
392,203	11,86
392,564	11,88
392,925	11,89
393,286	11,88
393,648	11,91
394,009	11,92
394,37	11,94
394,731	11,99
395,092	12,03
395,452	12,06
395,813	12,11
396,174	12,13
396,535	12,15
396,896	12,2
397,257	12,23
397,617	12,27
397,978	12,34
398,338	12,39
398,699	12,41
399,06	12,46
399,42	12,41
399,781	12,42
400,141	12,42
400,501	12,44
400,862	12,47
401,222	12,5
401,582	12,49
401,943	12,5
402,303	12,52
402,663	12,52
403,023	12,54
403,383	12,55
403,743	12,54
404,103	12,56
404,463	12,56
404,823	12,57
405,183	12,6
405,543	12,59
405,903	12,62
406,262	12,59
406,622	12,54
406,982	12,56
407,342	12,6
407,701	12,62
408,061	12,68
408,42	12,69
408,78	12,68
409,139	12,71
409,499	12,72
409,858	12,72
410,217	12,72
410,577	12,74
410,936	12,76
411,295	12,8
411,655	12,79
412,014	12,78
412,373	12,74
412,732	12,72
413,091	12,69
413,45	12,64
413,809	12,66
414,168	12,63
414,527	12,58
414,886	12,53
415,245	12,51
415,603	12,44
415,962	12,42
416,321	12,4
416,679	12,35
417,038	12,29
417,397	12,24
417,755	12,19
418,114	12,14
418,472	12,09
418,831	12,06
419,189	12,04
419,547	12,02
419,906	12,03
420,264	12
420,622	11,98
420,981	11,98
421,339	11,96
421,697	11,98
422,055	12
422,413	12,02
422,771	12,01
423,129	12,03
423,487	12,04
423,845	12,07
424,203	12,09
424,56	12,15
424,918	12,19
425,276	12,26
425,634	12,29
425,991	12,34
426,349	12,38
426,707	12,44
427,064	12,47
427,422	12,51
427,779	12,6
428,137	12,66
428,494	12,72
428,851	12,75
429,209	12,78
429,566	12,79
429,923	12,78
430,28	12,83
430,637	12,86
430,995	12,85
431,352	12,83
431,709	12,83
432,066	12,84
432,423	12,84
432,78	12,84
433,137	12,86
433,493	12,82
433,85	12,87
434,207	12,82
434,564	12,84
434,92	12,85
435,277	12,82
435,634	12,83
435,99	12,84
436,347	12,85
436,703	12,86
437,06	12,85
437,416	12,87
437,773	12,84
438,129	12,81
438,485	12,83
438,841	12,83
439,198	12,84
439,554	12,82
439,91	12,82
440,266	12,8
440,622	12,82
440,978	12,83
441,334	12,8
441,69	12,81
442,046	12,79
442,402	12,75
442,758	12,74
443,113	12,71
443,469	12,69
443,825	12,7
444,181	12,71
444,536	12,72
444,892	12,73
445,247	12,74
445,603	12,76
445,958	12,78
446,314	12,78
446,669	12,79
447,025	12,8
447,38	12,81
447,735	12,82
448,09	12,83
448,446	12,83
448,801	12,82
449,156	12,84
449,511	12,89
449,866	12,94
450,221	12,98
450,576	13,03
450,931	13,09
451,286	13,11
451,641	13,15
451,995	13,16
452,35	13,19
452,705	13,2
453,06	13,18
453,414	13,18
453,769	13,17
454,123	13,18
454,478	13,18
454,832	13,17
455,187	13,18
455,541	13,17
455,896	13,14
456,25	13,16
456,604	13,14
456,958	13,11
457,313	13,09
457,667	13,09
458,021	13,08
458,375	13,09
458,729	13,09
459,083	13,1
459,437	13,12
459,791	13,11
460,145	13,15
460,499	13,17
460,852	13,18
461,206	13,2
461,56	13,19
461,914	13,21
462,267	13,22
462,621	13,23
462,974	13,23
463,328	13,28
463,681	13,29
464,035	13,3
464,388	13,34
464,742	13,35
465,095	13,36
465,448	13,39
465,801	13,38
466,155	13,36
466,508	13,35
466,861	13,36
467,214	13,37
467,567	13,35
467,92	13,36
468,273	13,34
468,626	13,35
468,979	13,36
469,332	13,37
469,684	13,38
470,037	13,42
470,39	13,42
470,743	13,43
471,095	13,45
471,448	13,5
471,8	13,52
472,153	13,54
472,505	13,57
472,858	13,58
473,21	13,59
473,562	13,63
473,915	13,63
474,267	13,63
474,619	13,64
474,971	13,64
475,324	13,65
475,676	13,68
476,028	13,67
476,38	13,68
476,732	13,69
477,084	13,7
477,436	13,69
477,787	13,66
478,139	13,65
478,491	13,64
478,843	13,59
479,195	13,56
479,546	13,52
479,898	13,48
480,249	13,43
480,601	13,42
480,952	13,39
481,304	13,37
481,655	13,35
482,007	13,34
482,358	13,33
482,709	13,33
483,061	13,32
483,412	13,31
483,763	13,29
484,114	13,29
484,465	13,26
484,816	13,25
485,167	13,25
485,518	13,25
485,869	13,26
486,22	13,27
486,571	13,28
486,922	13,29
487,272	13,31
487,623	13,31
487,974	13,31
488,324	13,31
488,675	13,33
489,025	13,34
489,376	13,35
489,726	13,36
490,077	13,37
490,427	13,37
490,778	13,4
491,128	13,42
491,478	13,44
491,828	13,49
492,179	13,53
492,529	13,56
492,879	13,58
493,229	13,56
493,579	13,56
493,929	13,56
494,279	13,58
494,629	13,57
494,979	13,59
495,328	13,61
495,678	13,65
496,028	13,67
496,378	13,72
496,727	13,75
497,077	13,78
497,426	13,8
497,776	13,81
498,125	13,81
498,475	13,81
498,824	13,82
499,174	13,82
499,523	13,81
499,872	13,83
500,221	13,84
500,571	13,87
500,92	13,91
501,269	13,92
501,618	13,92
501,967	13,92
502,316	13,95
502,665	13,95
503,014	13,97
503,363	13,98
503,711	13,98
504,06	13,98
504,409	13,96
504,758	13,93
505,106	13,95
505,455	13,96
505,803	13,95
506,152	13,93
506,5	13,91
506,849	13,92
507,197	13,92
507,546	13,92
507,894	13,92
508,242	13,91
508,59	13,93
508,939	13,93
509,287	13,94
509,635	13,94
509,983	13,96
510,331	13,97
510,679	13,98
511,027	13,99
511,375	14,01
511,723	14,02
512,07	14,05
512,418	14,05
512,766	14,06
513,114	14,09
513,461	14,12
513,809	14,14
514,156	14,14
514,504	14,14
514,851	14,14
515,199	14,15
515,546	14,16
515,893	14,15
516,241	14,16
516,588	14,16
516,935	14,17
517,282	14,17
517,63	14,16
517,977	14,16
518,324	14,15
518,671	14,14
519,018	14,16
519,365	14,17
519,711	14,18
520,058	14,2
520,405	14,19
520,752	14,17
521,099	14,19
521,445	14,23
521,792	14,23
522,138	14,23
522,485	14,22
522,832	14,23
523,178	14,23
523,524	14,22
523,871	14,23
524,217	14,23
524,563	14,2
524,91	14,18
525,256	14,16
525,602	14,15
525,948	14,13
526,294	14,11
526,64	14,11
526,986	14,09
527,332	14,08
527,678	14,08
528,024	14,08
528,37	14,09
528,716	14,06
529,061	14,07
529,407	14,06
529,753	14,07
530,098	14,07
530,444	14,07
530,789	14,07
531,135	14,06
531,48	14,07
531,826	14,09
532,171	14,11
532,516	14,12
532,862	14,12
533,207	14,14
533,552	14,16
533,897	14,17
534,242	14,19
534,587	14,2
534,932	14,22
535,277	14,22
535,622	14,21
535,967	14,23
536,312	14,25
536,657	14,27
537,001	14,3
537,346	14,3
537,691	14,29
538,035	14,28
538,38	14,27
538,724	14,26
539,069	14,26
539,413	14,27
539,758	14,26
540,102	14,28
540,446	14,3
540,791	14,29
541,135	14,28
541,479	14,29
541,823	14,3
542,167	14,29
542,512	14,31
542,856	14,29
543,2	14,28
543,543	14,28
543,887	14,28
544,231	14,27
544,575	14,29
544,919	14,32
545,262	14,35
545,606	14,38
545,95	14,4
546,293	14,43
546,637	14,42
546,98	14,45
547,324	14,44
547,667	14,45
548,011	14,46
548,354	14,47
548,697	14,45
549,04	14,45
549,384	14,45
549,727	14,43
550,07	14,46
550,413	14,49
550,756	14,48
551,099	14,48
551,442	14,47
551,785	14,47
552,128	14,47
552,47	14,45
552,813	14,46
553,156	14,47
553,499	14,46
553,841	14,44
554,184	14,43
554,526	14,41
554,869	14,41
555,211	14,39
555,554	14,39
555,896	14,4
556,238	14,38
556,581	14,38
556,923	14,37
557,265	14,35
557,607	14,35
557,949	14,33
558,291	14,31
558,633	14,29
558,975	14,26
559,317	14,26
559,659	14,26
560,001	14,24
560,343	14,21
560,685	14,2
561,026	14,18
561,368	14,17
561,71	14,17
562,051	14,16
562,393	14,17
562,734	14,15
563,076	14,15
563,417	14,15
563,759	14,14
564,1	14,15
564,441	14,15
564,782	14,11
565,124	14,09
565,465	14,08
565,806	14,07
566,147	14,05
566,488	14,04
566,829	14
567,17	13,99
567,511	13,98
567,851	13,99
568,192	13,97
568,533	13,96
568,874	13,96
569,214	13,94
569,555	13,9
569,895	13,92
570,236	13,9
570,576	13,89
570,917	13,88
571,257	13,86
571,598	13,86
571,938	13,86
572,278	13,87
572,618	13,89
572,959	13,9
573,299	13,92
573,639	13,91
573,979	13,92
574,319	13,89
574,659	13,88
574,999	13,85
575,339	13,85
575,678	13,84
576,018	13,84
576,358	13,79
576,698	13,77
577,037	13,73
577,377	13,72
577,716	13,71
578,056	13,7
578,395	13,67
578,735	13,64
579,074	13,64
579,413	13,62
579,753	13,57
580,092	13,55
580,431	13,54
580,77	13,53
581,109	13,51
581,448	13,51
581,787	13,52
582,126	13,5
582,465	13,51
582,804	13,51
583,143	13,49
583,482	13,51
583,82	13,55
584,159	13,56
584,498	13,57
584,836	13,59
585,175	13,62
585,514	13,62
585,852	13,63
586,19	13,65
586,529	13,67
586,867	13,7
587,205	13,69
587,544	13,71
587,882	13,68
588,22	13,71
588,558	13,74
588,896	13,72
589,234	13,75
589,572	13,77
589,91	13,78
590,248	13,76
590,586	13,77
590,924	13,74
591,262	13,72
591,599	13,74
591,937	13,73
592,275	13,71
592,612	13,73
592,95	13,75
593,287	13,76
593,625	13,78
593,962	13,79
594,299	13,87
594,637	13,88
594,974	13,92
595,311	13,89
595,648	13,87
595,985	13,92
596,322	13,91
596,659	13,93
596,996	13,92
597,333	13,94
597,67	13,95
598,007	13,94
598,344	13,96
598,681	13,95
599,017	13,96
599,354	13,99
599,691	13,98
600,027	14
600,364	13,97
600,7	13,98
601,037	14,01
601,373	14,01
601,71	14
602,046	14,05
602,382	14,09
602,718	14,11
603,054	14,09
603,391	14,12
603,727	14,11
604,063	14,14
604,399	14,12
604,735	14,12
605,071	14,17
605,406	14,19
605,742	14,23
606,078	14,26
606,414	14,26
606,749	14,28
607,085	14,26
607,421	14,26
607,756	14,26
608,092	14,26
608,427	14,24
608,762	14,22
609,098	14,18
609,433	14,17
609,768	14,18
610,104	14,15
610,439	14,14
610,774	14,14
611,109	14,13
611,444	14,16
611,779	14,17
612,114	14,15
612,449	14,17
612,784	14,13
613,118	14,12
613,453	14,1
613,788	14,1
614,123	14,06
614,457	14,06
614,792	14,04
615,126	13,99
615,461	13,96
615,795	14,01
616,13	14
616,464	13,99
616,798	14
617,132	14,05
617,467	14,05
617,801	14,01
618,135	13,98
618,469	14,01
618,803	14
619,137	13,99
619,471	13,95
619,805	13,94
620,139	13,94
620,472	13,99
620,806	13,99
621,14	14,02
621,473	14,06
621,807	14,07
622,141	14,08
622,474	14,09
622,808	14,04
623,141	14,05
623,474	14,08
623,808	14,09
624,141	14,12
624,474	14,13
624,807	14,16
625,141	14,22
625,474	14,2
625,807	14,23
626,14	14,25
626,473	14,29
626,806	14,3
627,138	14,29
627,471	14,27
627,804	14,27
628,137	14,26
628,469	14,24
628,802	14,25
629,135	14,29
629,467	14,31
629,8	14,34
630,132	14,35
630,465	14,37
630,797	14,39
631,129	14,37
631,461	14,37
631,794	14,37
632,126	14,33
632,458	14,37
632,79	14,37
633,122	14,4
633,454	14,36
633,786	14,35
634,118	14,35
634,45	14,4
634,781	14,39
635,113	14,46
635,445	14,46
635,777	14,48
636,108	14,45
636,44	14,44
636,771	14,45
637,103	14,44
637,434	14,41
637,765	14,38
638,097	14,39
638,428	14,35
638,759	14,31
639,09	14,36
639,422	14,34
639,753	14,36
640,084	14,31
640,415	14,31
640,746	14,32
641,077	14,3
641,407	14,26
641,738	14,27
642,069	14,25
642,4	14,23
642,73	14,2
643,061	14,2
643,392	14,16
643,722	14,16
644,053	14,18
644,383	14,17
644,713	14,18
645,044	14,16
645,374	14,21
645,704	14,28
646,034	14,27
646,365	14,29
646,695	14,27
647,025	14,32
647,355	14,37
647,685	14,38
648,015	14,44
648,344	14,44
