Data from zc_m3_p5_Reflection_4,txt Node
Date: Wed Nov 25 16:57:26 GMT-03:00 2020
User: Darío
Spectrometer: USB2E3644
Trigger mode: 4
Integration Time (sec): 9,000000E-2
Scans to average: 10
Electric dark correction enabled: true
Nonlinearity correction enabled: false
Boxcar width: 10
XAxis mode: Wavelengths
Number of Pixels in Spectrum: 2048
>>>>>Begin Spectral Data<<<<<
178,315	80,58
178,696	84,78
179,076	97,66
179,457	84,21
179,838	73,17
180,218	74,22
180,599	90,63
180,979	85,45
181,36	-380
181,74	258,82
182,121	157,69
182,501	123,75
182,881	128,71
183,262	132,48
183,642	141,86
184,022	138,78
184,402	143,75
184,783	148,54
185,163	138,26
185,543	136,18
185,923	132,32
186,303	131,23
186,683	134,72
187,063	137,07
187,443	139,13
187,823	140,72
188,203	143,56
188,583	144,84
188,963	142,23
189,343	136,9
189,723	135,8
190,102	133,11
190,482	130,87
190,862	127,5
191,242	124,46
191,621	122,19
192,001	120,15
192,38	118,45
192,76	115,99
193,14	112,88
193,519	110,83
193,898	111,14
194,278	110,21
194,657	109,32
195,037	110,49
195,416	108,82
195,795	105,87
196,175	102,52
196,554	103,79
196,933	106,78
197,312	109,85
197,692	110,74
198,071	112,99
198,45	115,42
198,829	115,34
199,208	115,47
199,587	115,57
199,966	115
200,345	114,71
200,724	114,03
201,103	114,41
201,482	113,5
201,86	112,9
202,239	112,3
202,618	110,51
202,997	108,4
203,375	107,04
203,754	105,43
204,133	105,85
204,511	104,72
204,89	102,73
205,269	100,11
205,647	99,12
206,026	98,11
206,404	97,85
206,782	99,1
207,161	99,89
207,539	101,79
207,918	104,78
208,296	107,58
208,674	107,07
209,052	107,1
209,431	107,8
209,809	108,79
210,187	111,54
210,565	113,55
210,943	115,65
211,321	117,12
211,699	119,05
212,077	119,88
212,455	120,42
212,833	120,55
213,211	122,15
213,589	122,75
213,967	121,24
214,345	120,18
214,722	119,79
215,1	117,67
215,478	114,91
215,855	112,2
216,233	109,24
216,611	109,06
216,988	112,77
217,366	114,49
217,743	114,82
218,121	113,44
218,498	112,11
218,876	111,78
219,253	113,08
219,631	113,96
220,008	114,91
220,385	116,08
220,762	119,14
221,14	119,81
221,517	118,36
221,894	120,09
222,271	119,77
222,648	121,19
223,025	125,37
223,402	127,43
223,78	130,17
224,157	131,24
224,533	133,92
224,91	134,7
225,287	137,11
225,664	142,48
226,041	145,8
226,418	150,89
226,795	149,8
227,171	149,51
227,548	153,92
227,925	155,58
228,301	161,73
228,678	167,62
229,055	168,34
229,431	174,22
229,808	174,46
230,184	176,91
230,561	177,61
230,937	180,64
231,313	183,22
231,69	186,24
232,066	187,85
232,442	195,17
232,819	199,76
233,195	196,92
233,571	196,68
233,947	197,18
234,323	193,68
234,699	203,3
235,075	209,42
235,451	215,35
235,827	223,86
236,203	226,61
236,579	221,66
236,955	228,5
237,331	240,46
237,707	268,27
238,083	305,9
238,459	357,51
238,834	439,58
239,21	625,93
239,586	1065,82
239,961	2603,03
240,337	6235,71
240,713	-2668,75
241,088	-1038,75
241,464	-705,17
241,839	-512,74
242,215	-346,67
242,59	-249,03
242,965	-174,83
243,341	-122,46
243,716	-91,31
244,091	-76,05
244,467	-64,93
244,842	-57,85
245,217	-54,72
245,592	-52,68
245,967	-52,86
246,343	-51,78
246,718	-52,19
247,093	-53,1
247,468	-53,48
247,843	-52,87
248,218	-50,27
248,593	-48,8
248,967	-46,97
249,342	-45,86
249,717	-46,14
250,092	-47,49
250,467	-48,59
250,841	-50,77
251,216	-56,09
251,591	-62,83
251,965	-68,95
252,34	-77,07
252,714	-82,5
253,089	-84,69
253,463	-84,8
253,838	-81,2
254,212	-77,55
254,587	-73,57
254,961	-69,01
255,335	-63,12
255,71	-54,73
256,084	-45,62
256,458	-38,57
256,832	-32,7
257,206	-29,45
257,581	-26,98
257,955	-25,77
258,329	-25,04
258,703	-23,85
259,077	-22,92
259,451	-22,34
259,825	-21,66
260,199	-20,67
260,572	-20,17
260,946	-20,07
261,32	-20,2
261,694	-20,04
262,068	-20,12
262,441	-19,38
262,815	-18,3
263,189	-17,67
263,562	-17,25
263,936	-17,57
264,309	-17,55
264,683	-18,67
265,056	-19,21
265,43	-18,5
265,803	-17,73
266,176	-16,73
266,55	-16,16
266,923	-15,14
267,296	-14,25
267,67	-14,21
268,043	-14,3
268,416	-13,9
268,789	-13,54
269,162	-12,29
269,535	-11,53
269,908	-10,94
270,281	-10,98
270,654	-11,42
271,027	-11,93
271,4	-12,79
271,773	-13,44
272,146	-14,42
272,519	-15,06
272,891	-15,42
273,264	-16,25
273,637	-16,61
274,01	-16,77
274,382	-16,85
274,755	-16,99
275,127	-17,38
275,5	-17,41
275,872	-17,17
276,245	-17,36
276,617	-17,38
276,99	-17,96
277,362	-18,55
277,734	-18,64
278,107	-18,5
278,479	-17,58
278,851	-16,82
279,223	-15,88
279,596	-15,27
279,968	-14,73
280,34	-14,34
280,712	-14,17
281,084	-13,97
281,456	-13,37
281,828	-12,75
282,2	-12,23
282,572	-11,5
282,944	-10,67
283,315	-10,13
283,687	-9,62
284,059	-9,09
284,431	-8,62
284,802	-8,15
285,174	-7,85
285,546	-7,7
285,917	-7,73
286,289	-7,99
286,66	-7,92
287,032	-7,72
287,403	-7,82
287,775	-7,67
288,146	-7,51
288,518	-7,35
288,889	-7,15
289,26	-7,19
289,632	-7,39
290,003	-7,53
290,374	-7,91
290,745	-8,19
291,116	-8,26
291,487	-8,48
291,858	-8,95
292,229	-9,2
292,6	-8,87
292,971	-8,49
293,342	-8,17
293,713	-7,65
294,084	-7,3
294,455	-7,07
294,826	-7,21
295,196	-6,7
295,567	-6,48
295,938	-6,46
296,308	-6,31
296,679	-6,04
297,05	-5,78
297,42	-5,65
297,791	-5,35
298,161	-5,37
298,532	-5,4
298,902	-5,32
299,272	-5,06
299,643	-4,56
300,013	-4,19
300,383	-4,29
300,754	-4,47
301,124	-4,67
301,494	-4,78
301,864	-4,66
302,234	-4,68
302,604	-4,45
302,974	-4,54
303,344	-4,61
303,714	-4,65
304,084	-4,68
304,454	-4,37
304,824	-4,34
305,194	-4,47
305,563	-4,77
305,933	-4,49
306,303	-4,24
306,673	-4,1
307,042	-3,98
307,412	-4,1
307,781	-4,02
308,151	-3,95
308,521	-3,82
308,89	-3,64
309,259	-3,41
309,629	-3,45
309,998	-3,43
310,368	-3,28
310,737	-3,13
311,106	-3,12
311,475	-3,04
311,845	-2,96
312,214	-3,21
312,583	-3,29
312,952	-3,05
313,321	-2,97
313,69	-3,18
314,059	-3,2
314,428	-3,04
314,797	-2,98
315,166	-2,87
315,535	-3,12
315,904	-3,4
316,272	-3,67
316,641	-3,74
317,01	-4,08
317,379	-4,07
317,747	-4,01
318,116	-4,06
318,484	-4,08
318,853	-4,08
319,221	-4,01
319,59	-3,76
319,958	-3,6
320,327	-3,32
320,695	-3,31
321,063	-3,3
321,432	-3,09
321,8	-3,14
322,168	-3,36
322,536	-3,37
322,905	-3,48
323,273	-3,39
323,641	-3,14
324,009	-2,9
324,377	-2,77
324,745	-2,51
325,113	-2,36
325,481	-2,24
325,849	-2,18
326,216	-2,1
326,584	-1,93
326,952	-1,84
327,32	-1,98
327,687	-2,02
328,055	-2,01
328,423	-1,88
328,79	-1,72
329,158	-1,78
329,525	-1,78
329,893	-1,71
330,26	-1,68
330,628	-1,52
330,995	-1,36
331,362	-1,19
331,73	-1,09
332,097	-1
332,464	-0,96
332,831	-1,03
333,199	-0,92
333,566	-0,86
333,933	-0,85
334,3	-0,84
334,667	-0,73
335,034	-0,71
335,401	-0,72
335,768	-0,77
336,135	-0,79
336,502	-0,74
336,868	-0,48
337,235	-0,29
337,602	-0,12
337,969	-0,1
338,335	-0,07
338,702	-0,03
339,069	-0,07
339,435	0,02
339,802	0,05
340,168	0,01
340,535	0,17
340,901	0,21
341,267	0,14
341,634	0,15
342	0,13
342,366	0,11
342,733	0,17
343,099	0,27
343,465	0,38
343,831	0,49
344,197	0,59
344,563	0,58
344,929	0,51
345,295	0,49
345,661	0,53
346,027	0,57
346,393	0,64
346,759	0,69
347,125	0,71
347,491	0,76
347,856	0,91
348,222	0,99
348,588	0,97
348,953	1,11
349,319	1,19
349,684	1,28
350,05	1,34
350,415	1,44
350,781	1,54
351,146	1,57
351,512	1,51
351,877	1,47
352,242	1,52
352,608	1,64
352,973	1,7
353,338	1,78
353,703	1,84
354,068	1,78
354,433	1,73
354,798	1,75
355,164	1,69
355,528	1,62
355,893	1,58
356,258	1,55
356,623	1,49
356,988	1,46
357,353	1,42
357,718	1,43
358,082	1,47
358,447	1,46
358,812	1,47
359,176	1,65
359,541	1,75
359,905	1,81
360,27	1,77
360,634	1,75
360,999	1,72
361,363	1,71
361,728	1,8
362,092	1,9
362,456	1,95
362,821	2,04
363,185	2,12
363,549	2,18
363,913	2,28
364,277	2,36
364,641	2,43
365,005	2,54
365,369	2,55
365,733	2,56
366,097	2,63
366,461	2,66
366,825	2,6
367,189	2,62
367,553	2,68
367,916	2,81
368,28	2,91
368,644	3,03
369,007	3,18
369,371	3,25
369,734	3,35
370,098	3,44
370,461	3,52
370,825	3,62
371,188	3,68
371,552	3,76
371,915	3,82
372,278	3,91
372,642	4
373,005	4,07
373,368	4,11
373,731	4,13
374,094	4,2
374,457	4,29
374,82	4,34
375,183	4,39
375,546	4,45
375,909	4,52
376,272	4,54
376,635	4,59
376,998	4,65
377,361	4,69
377,723	4,72
378,086	4,72
378,449	4,77
378,811	4,79
379,174	4,81
379,537	4,89
379,899	4,93
380,262	4,92
380,624	4,94
380,987	4,97
381,349	5,03
381,711	5,07
382,074	5,07
382,436	5,13
382,798	5,24
383,16	5,27
383,522	5,29
383,884	5,31
384,247	5,29
384,609	5,31
384,971	5,37
385,333	5,39
385,695	5,43
386,056	5,38
386,418	5,39
386,78	5,41
387,142	5,4
387,504	5,37
387,865	5,39
388,227	5,42
388,589	5,49
388,95	5,49
389,312	5,48
389,673	5,48
390,035	5,46
390,396	5,42
390,758	5,39
391,119	5,39
391,48	5,39
391,842	5,41
392,203	5,4
392,564	5,38
392,925	5,4
393,286	5,39
393,648	5,44
394,009	5,47
394,37	5,49
394,731	5,51
395,092	5,54
395,452	5,55
395,813	5,59
396,174	5,58
396,535	5,61
396,896	5,66
397,257	5,72
397,617	5,76
397,978	5,8
398,338	5,85
398,699	5,87
399,06	5,91
399,42	5,91
399,781	5,89
400,141	5,89
400,501	5,87
400,862	5,89
401,222	5,86
401,582	5,86
401,943	5,84
402,303	5,85
402,663	5,88
403,023	5,87
403,383	5,88
403,743	5,89
404,103	5,85
404,463	5,84
404,823	5,81
405,183	5,84
405,543	5,81
405,903	5,79
406,262	5,77
406,622	5,75
406,982	5,74
407,342	5,77
407,701	5,81
408,061	5,83
408,42	5,85
408,78	5,86
409,139	5,86
409,499	5,86
409,858	5,87
410,217	5,85
410,577	5,89
410,936	5,87
411,295	5,88
411,655	5,89
412,014	5,89
412,373	5,89
412,732	5,85
413,091	5,82
413,45	5,79
413,809	5,79
414,168	5,74
414,527	5,69
414,886	5,61
415,245	5,57
415,603	5,53
415,962	5,49
416,321	5,49
416,679	5,43
417,038	5,4
417,397	5,33
417,755	5,27
418,114	5,23
418,472	5,2
418,831	5,18
419,189	5,17
419,547	5,14
419,906	5,12
420,264	5,09
420,622	5,08
420,981	5,07
421,339	5,05
421,697	5,07
422,055	5,08
422,413	5,11
422,771	5,11
423,129	5,12
423,487	5,14
423,845	5,16
424,203	5,2
424,56	5,22
424,918	5,26
425,276	5,31
425,634	5,35
425,991	5,38
426,349	5,4
426,707	5,44
427,064	5,49
427,422	5,54
427,779	5,62
428,137	5,65
428,494	5,7
428,851	5,76
429,209	5,78
429,566	5,79
429,923	5,79
430,28	5,8
430,637	5,81
430,995	5,8
431,352	5,76
431,709	5,76
432,066	5,8
432,423	5,79
432,78	5,79
433,137	5,79
433,493	5,79
433,85	5,81
434,207	5,77
434,564	5,76
434,92	5,76
435,277	5,73
435,634	5,73
435,99	5,72
436,347	5,69
436,703	5,69
437,06	5,67
437,416	5,67
437,773	5,66
438,129	5,65
438,485	5,66
438,841	5,67
439,198	5,66
439,554	5,66
439,91	5,69
440,266	5,7
440,622	5,69
440,978	5,7
441,334	5,68
441,69	5,68
442,046	5,67
442,402	5,65
442,758	5,64
443,113	5,63
443,469	5,63
443,825	5,64
444,181	5,65
444,536	5,67
444,892	5,68
445,247	5,69
445,603	5,7
445,958	5,72
446,314	5,73
446,669	5,75
447,025	5,75
447,38	5,74
447,735	5,75
448,09	5,76
448,446	5,75
448,801	5,75
449,156	5,78
449,511	5,8
449,866	5,86
450,221	5,9
450,576	5,94
450,931	5,98
451,286	6,01
451,641	6,05
451,995	6,06
452,35	6,09
452,705	6,11
453,06	6,11
453,414	6,12
453,769	6,1
454,123	6,12
454,478	6,13
454,832	6,13
455,187	6,12
455,541	6,12
455,896	6,12
456,25	6,12
456,604	6,1
456,958	6,09
457,313	6,06
457,667	6,05
458,021	6,05
458,375	6,06
458,729	6,07
459,083	6,08
459,437	6,11
459,791	6,11
460,145	6,13
460,499	6,15
460,852	6,16
461,206	6,18
461,56	6,16
461,914	6,16
462,267	6,16
462,621	6,17
462,974	6,18
463,328	6,21
463,681	6,24
464,035	6,27
464,388	6,29
464,742	6,31
465,095	6,32
465,448	6,35
465,801	6,35
466,155	6,35
466,508	6,36
466,861	6,36
467,214	6,37
467,567	6,37
467,92	6,36
468,273	6,36
468,626	6,38
468,979	6,39
469,332	6,41
469,684	6,44
470,037	6,46
470,39	6,49
470,743	6,5
471,095	6,53
471,448	6,58
471,8	6,61
472,153	6,64
472,505	6,66
472,858	6,67
473,21	6,68
473,562	6,7
473,915	6,71
474,267	6,72
474,619	6,72
474,971	6,72
475,324	6,74
475,676	6,76
476,028	6,76
476,38	6,77
476,732	6,78
477,084	6,78
477,436	6,79
477,787	6,78
478,139	6,77
478,491	6,78
478,843	6,76
479,195	6,75
479,546	6,73
479,898	6,69
480,249	6,65
480,601	6,6
480,952	6,56
481,304	6,54
481,655	6,53
482,007	6,53
482,358	6,53
482,709	6,53
483,061	6,52
483,412	6,52
483,763	6,51
484,114	6,51
484,465	6,5
484,816	6,49
485,167	6,49
485,518	6,5
485,869	6,5
486,22	6,5
486,571	6,51
486,922	6,51
487,272	6,52
487,623	6,55
487,974	6,58
488,324	6,61
488,675	6,64
489,025	6,65
489,376	6,67
489,726	6,68
490,077	6,69
490,427	6,72
490,778	6,74
491,128	6,77
491,478	6,8
491,828	6,85
492,179	6,89
492,529	6,93
492,879	6,95
493,229	6,97
493,579	6,99
493,929	7
494,279	7,04
494,629	7,05
494,979	7,08
495,328	7,11
495,678	7,15
496,028	7,18
496,378	7,22
496,727	7,26
497,077	7,29
497,426	7,31
497,776	7,32
498,125	7,32
498,475	7,33
498,824	7,33
499,174	7,35
499,523	7,35
499,872	7,35
500,221	7,36
500,571	7,39
500,92	7,42
501,269	7,46
501,618	7,45
501,967	7,47
502,316	7,5
502,665	7,55
503,014	7,57
503,363	7,6
503,711	7,65
504,06	7,67
504,409	7,69
504,758	7,68
505,106	7,7
505,455	7,71
505,803	7,72
506,152	7,72
506,5	7,73
506,849	7,75
507,197	7,78
507,546	7,8
507,894	7,82
508,242	7,83
508,59	7,82
508,939	7,83
509,287	7,85
509,635	7,85
509,983	7,84
510,331	7,86
510,679	7,89
511,027	7,91
511,375	7,94
511,723	7,95
512,07	7,97
512,418	8
512,766	8,04
513,114	8,08
513,461	8,1
513,809	8,12
514,156	8,15
514,504	8,16
514,851	8,16
515,199	8,18
515,546	8,19
515,893	8,21
516,241	8,24
516,588	8,27
516,935	8,29
517,282	8,31
517,63	8,32
517,977	8,33
518,324	8,34
518,671	8,35
519,018	8,38
519,365	8,39
519,711	8,42
520,058	8,43
520,405	8,46
520,752	8,48
521,099	8,5
521,445	8,53
521,792	8,54
522,138	8,57
522,485	8,58
522,832	8,61
523,178	8,64
523,524	8,67
523,871	8,67
524,217	8,7
524,563	8,72
524,91	8,71
525,256	8,7
525,602	8,68
525,948	8,68
526,294	8,67
526,64	8,66
526,986	8,65
527,332	8,65
527,678	8,64
528,024	8,64
528,37	8,66
528,716	8,65
529,061	8,67
529,407	8,69
529,753	8,7
530,098	8,72
530,444	8,72
530,789	8,73
531,135	8,76
531,48	8,76
531,826	8,78
532,171	8,82
532,516	8,86
532,862	8,92
533,207	8,96
533,552	9
533,897	9,05
534,242	9,09
534,587	9,13
534,932	9,17
535,277	9,2
535,622	9,21
535,967	9,25
536,312	9,29
536,657	9,32
537,001	9,36
537,346	9,41
537,691	9,44
538,035	9,46
538,38	9,47
538,724	9,48
539,069	9,5
539,413	9,51
539,758	9,52
540,102	9,53
540,446	9,54
540,791	9,55
541,135	9,57
541,479	9,59
541,823	9,61
542,167	9,63
542,512	9,65
542,856	9,65
543,2	9,65
543,543	9,66
543,887	9,68
544,231	9,71
544,575	9,73
544,919	9,77
545,262	9,83
545,606	9,88
545,95	9,94
546,293	9,98
546,637	10,02
546,98	10,07
547,324	10,11
547,667	10,16
548,011	10,19
548,354	10,22
548,697	10,23
549,04	10,25
549,384	10,26
549,727	10,27
550,07	10,33
550,413	10,36
550,756	10,4
551,099	10,41
551,442	10,41
551,785	10,43
552,128	10,46
552,47	10,44
552,813	10,49
553,156	10,49
553,499	10,48
553,841	10,49
554,184	10,51
554,526	10,48
554,869	10,49
555,211	10,53
555,554	10,54
555,896	10,58
556,238	10,59
556,581	10,62
556,923	10,63
557,265	10,65
557,607	10,7
557,949	10,73
558,291	10,73
558,633	10,74
558,975	10,75
559,317	10,76
559,659	10,77
560,001	10,76
560,343	10,76
560,685	10,76
561,026	10,78
561,368	10,78
561,71	10,81
562,051	10,82
562,393	10,8
562,734	10,81
563,076	10,83
563,417	10,83
563,759	10,83
564,1	10,87
564,441	10,88
564,782	10,85
565,124	10,83
565,465	10,84
565,806	10,86
566,147	10,88
566,488	10,88
566,829	10,9
567,17	10,92
567,511	10,94
567,851	11
568,192	11,01
568,533	11,01
568,874	11,06
569,214	11,09
569,555	11,11
569,895	11,12
570,236	11,12
570,576	11,14
570,917	11,16
571,257	11,15
571,598	11,15
571,938	11,17
572,278	11,19
572,618	11,24
572,959	11,26
573,299	11,28
573,639	11,32
573,979	11,33
574,319	11,34
574,659	11,37
574,999	11,34
575,339	11,34
575,678	11,37
576,018	11,35
576,358	11,36
576,698	11,36
577,037	11,38
577,377	11,4
577,716	11,45
578,056	11,47
578,395	11,5
578,735	11,53
579,074	11,53
579,413	11,55
579,753	11,54
580,092	11,52
580,431	11,54
580,77	11,56
581,109	11,59
581,448	11,61
581,787	11,64
582,126	11,66
582,465	11,7
582,804	11,74
583,143	11,79
583,482	11,8
583,82	11,86
584,159	11,9
584,498	11,91
584,836	11,9
585,175	11,92
585,514	11,97
585,852	12,03
586,19	12,08
586,529	12,12
586,867	12,17
587,205	12,23
587,544	12,28
587,882	12,27
588,22	12,32
588,558	12,34
588,896	12,36
589,234	12,4
589,572	12,41
589,91	12,42
590,248	12,44
590,586	12,49
590,924	12,52
591,262	12,53
591,599	12,6
591,937	12,64
592,275	12,67
592,612	12,68
592,95	12,71
593,287	12,79
593,625	12,84
593,962	12,89
594,299	12,95
594,637	12,98
594,974	13,02
595,311	13,06
595,648	13,1
595,985	13,13
596,322	13,13
596,659	13,19
596,996	13,23
597,333	13,23
597,67	13,24
598,007	13,25
598,344	13,31
598,681	13,32
599,017	13,33
599,354	13,37
599,691	13,41
600,027	13,46
600,364	13,49
600,7	13,55
601,037	13,61
601,373	13,69
601,71	13,75
602,046	13,85
602,382	13,87
602,718	13,9
603,054	13,93
603,391	14
603,727	14,03
604,063	14,08
604,399	14,13
604,735	14,17
605,071	14,21
605,406	14,27
605,742	14,33
606,078	14,38
606,414	14,43
606,749	14,46
607,085	14,48
607,421	14,48
607,756	14,51
608,092	14,53
608,427	14,5
608,762	14,5
609,098	14,52
609,433	14,53
609,768	14,59
610,104	14,61
610,439	14,63
610,774	14,66
611,109	14,64
611,444	14,67
611,779	14,7
612,114	14,75
612,449	14,74
612,784	14,75
613,118	14,79
613,453	14,81
613,788	14,82
614,123	14,82
614,457	14,87
614,792	14,88
615,126	14,91
615,461	14,92
615,795	14,96
616,13	14,93
616,464	14,96
616,798	14,95
617,132	15
617,467	15,03
617,801	15,04
618,135	15,07
618,469	15,14
618,803	15,14
619,137	15,18
619,471	15,17
619,805	15,19
620,139	15,19
620,472	15,22
620,806	15,28
621,14	15,29
621,473	15,3
621,807	15,33
622,141	15,36
622,474	15,43
622,808	15,45
623,141	15,54
623,474	15,62
623,808	15,69
624,141	15,72
624,474	15,78
624,807	15,78
625,141	15,85
625,474	15,88
625,807	15,94
626,14	15,95
626,473	16
626,806	16,07
627,138	16,12
627,471	16,12
627,804	16,16
628,137	16,22
628,469	16,26
628,802	16,31
629,135	16,32
629,467	16,4
629,8	16,48
630,132	16,51
630,465	16,53
630,797	16,56
631,129	16,58
631,461	16,62
631,794	16,69
632,126	16,66
632,458	16,69
632,79	16,72
633,122	16,78
633,454	16,83
633,786	16,79
634,118	16,89
634,45	16,92
634,781	16,93
635,113	16,98
635,445	17,03
635,777	17,02
636,108	17,05
636,44	17,04
636,771	17,06
637,103	17,05
637,434	17,08
637,765	17,1
638,097	17,16
638,428	17,17
638,759	17,15
639,09	17,24
639,422	17,26
639,753	17,33
640,084	17,32
640,415	17,34
640,746	17,45
641,077	17,43
641,407	17,47
641,738	17,54
642,069	17,55
642,4	17,56
642,73	17,64
643,061	17,67
643,392	17,69
643,722	17,75
644,053	17,84
644,383	17,86
644,713	17,94
645,044	17,93
645,374	18
645,704	18,05
646,034	18,14
646,365	18,17
646,695	18,21
647,025	18,32
647,355	18,38
647,685	18,38
648,015	18,37
648,344	18,4
648,674	18,45
649,004	18,49
649,334	18,58
649,663	18,6
649,993	18,7
650,323	18,76
650,652	18,73
650,982	18,73
651,311	18,72
651,64	18,66
651,97	18,7
652,299	18,7
652,628	18,77
652,958	18,78
653,287	18,82
653,616	18,73
653,945	18,69
654,274	18,72
654,603	18,77
654,932	18,89
655,261	18,96
655,589	18,97
655,918	19,07
656,247	19,08
656,576	19,18
656,904	19,22
657,233	19,27
657,561	19,3
657,89	19,35
