Data from zc_m2_p4_Reflection_3,txt Node
Date: Wed Nov 25 16:49:17 GMT-03:00 2020
User: Darío
Spectrometer: USB2E3644
Trigger mode: 4
Integration Time (sec): 9,000000E-2
Scans to average: 10
Electric dark correction enabled: true
Nonlinearity correction enabled: false
Boxcar width: 10
XAxis mode: Wavelengths
Number of Pixels in Spectrum: 2048
>>>>>Begin Spectral Data<<<<<
178,315	111,4
178,696	146,05
179,076	170,65
179,457	139,84
179,838	121,8
180,218	122,28
180,599	130,57
180,979	118,18
181,36	-8,87
181,74	-39,71
182,121	241,79
182,501	139,94
182,881	148,92
183,262	134,62
183,642	134,73
184,022	136,11
184,402	150,89
184,783	155,33
185,163	144,33
185,543	138,88
185,923	137,69
186,303	135,3
186,683	135,65
187,063	136,81
187,443	134,27
187,823	131,46
188,203	128,77
188,583	126,6
188,963	125,91
189,343	123,11
189,723	124,21
190,102	124,18
190,482	124,48
190,862	124,5
191,242	125,08
191,621	126,65
192,001	125,16
192,38	121,16
192,76	120,44
193,14	118,61
193,519	115,62
193,898	112,96
194,278	111,15
194,657	111,09
195,037	109,8
195,416	108,76
195,795	107,86
196,175	107,22
196,554	107,18
196,933	107,1
197,312	106,62
197,692	105,28
198,071	103,06
198,45	100,28
198,829	99,19
199,208	98,29
199,587	97,21
199,966	97,62
200,345	99
200,724	99,69
201,103	99,79
201,482	100,08
201,86	101,25
202,239	102,54
202,618	102,36
202,997	101,79
203,375	101,2
203,754	101,41
204,133	102,64
204,511	103,44
204,89	104,24
205,269	103,63
205,647	103,48
206,026	106,62
206,404	109,72
206,782	111,19
207,161	112,36
207,539	112,81
207,918	113,41
208,296	111,72
208,674	109,59
209,052	108,5
209,431	109,26
209,809	110,19
210,187	109,18
210,565	110,59
210,943	112,35
211,321	114,14
211,699	116,04
212,077	116,66
212,455	117,35
212,833	117,55
213,211	116,43
213,589	115,37
213,967	112,18
214,345	110,59
214,722	108,72
215,1	107,16
215,478	106,84
215,855	106,36
216,233	107,44
216,611	108,14
216,988	109,68
217,366	109,86
217,743	108,05
218,121	108,97
218,498	107,56
218,876	105,77
219,253	107,05
219,631	105,38
220,008	104,59
220,385	104,83
220,762	104,52
221,14	107,71
221,517	110,83
221,894	115,34
222,271	117,99
222,648	119,44
223,025	121,38
223,402	122,75
223,78	121,63
224,157	120,68
224,533	122,78
224,91	125,05
225,287	126,34
225,664	126,8
226,041	127,45
226,418	129,01
226,795	133,71
227,171	132,76
227,548	135,95
227,925	141,38
228,301	142,21
228,678	141,14
229,055	141,35
229,431	143,31
229,808	137,88
230,184	138,71
230,561	143,4
230,937	147,93
231,313	153,94
231,69	161,05
232,066	167,88
232,442	174,17
232,819	178,35
233,195	183,95
233,571	191,36
233,947	190,79
234,323	193,69
234,699	196,77
235,075	206,24
235,451	212,15
235,827	209,07
236,203	207,32
236,579	223,29
236,955	240,78
237,331	258,49
237,707	303,65
238,083	367
238,459	462,04
238,834	789,25
239,21	3876,52
239,586	-1441,16
239,961	-869,83
240,337	-707,5
240,713	-475,35
241,088	-334,88
241,464	-280,52
241,839	-230,24
242,215	-181,98
242,59	-142,51
242,965	-108,31
243,341	-81,13
243,716	-65,67
244,091	-56,34
244,467	-48,69
244,842	-43,29
245,217	-41,43
245,592	-40,73
245,967	-41,28
246,343	-41,22
246,718	-43,38
247,093	-44,64
247,468	-44,84
247,843	-44,77
248,218	-41,64
248,593	-40,88
248,967	-39,26
249,342	-37,99
249,717	-37,79
250,092	-38,67
250,467	-39,76
250,841	-42,3
251,216	-46,55
251,591	-50,91
251,965	-55,29
252,34	-60,52
252,714	-63,93
253,089	-64,19
253,463	-63,28
253,838	-59,22
254,212	-56,53
254,587	-53,3
254,961	-51,02
255,335	-47,13
255,71	-39,93
256,084	-32,78
256,458	-27,04
256,832	-23,12
257,206	-20,9
257,581	-18,92
257,955	-17,8
258,329	-17
258,703	-15,89
259,077	-15,27
259,451	-14,75
259,825	-14,55
260,199	-14,36
260,572	-15,1
260,946	-15,99
261,32	-16,59
261,694	-16,95
262,068	-17,15
262,441	-16,46
262,815	-15,61
263,189	-15,4
263,562	-15,61
263,936	-16,66
264,309	-17,68
264,683	-19,21
265,056	-19,9
265,43	-19,83
265,803	-19,56
266,176	-19,01
266,55	-18,35
266,923	-18,08
267,296	-18,03
267,67	-17,63
268,043	-17,64
268,416	-16,84
268,789	-15,38
269,162	-13,71
269,535	-12,53
269,908	-11,5
270,281	-11,34
270,654	-11,11
271,027	-10,93
271,4	-11,19
271,773	-11,67
272,146	-12,48
272,519	-12,84
272,891	-13
273,264	-13,47
273,637	-13,83
274,01	-13,84
274,382	-14,37
274,755	-14,35
275,127	-14,36
275,5	-14,02
275,872	-13,4
276,245	-13,07
276,617	-13,02
276,99	-13,58
277,362	-14,25
277,734	-14,53
278,107	-14,66
278,479	-14,33
278,851	-14,06
279,223	-13,71
279,596	-13,34
279,968	-12,67
280,34	-12,24
280,712	-12,11
281,084	-11,75
281,456	-11,27
281,828	-10,89
282,2	-9,91
282,572	-8,93
282,944	-8,15
283,315	-7,75
283,687	-7,47
284,059	-7,05
284,431	-6,7
284,802	-6,43
285,174	-6,04
285,546	-5,64
285,917	-5,5
286,289	-5,43
286,66	-5,21
287,032	-4,78
287,403	-4,47
287,775	-4,29
288,146	-4,16
288,518	-3,87
288,889	-3,81
289,26	-3,44
289,632	-3,25
290,003	-3,47
290,374	-3,9
290,745	-4,17
291,116	-3,9
291,487	-3,44
291,858	-3,22
292,229	-3,18
292,6	-2,56
292,971	-2,28
293,342	-2,06
293,713	-1,42
294,084	-1,08
294,455	-0,83
294,826	-0,69
295,196	-0,38
295,567	-0,2
295,938	-0,02
296,308	0,13
296,679	0,55
297,05	0,75
297,42	0,89
297,791	1,13
298,161	1,34
298,532	1,56
298,902	1,59
299,272	1,59
299,643	1,87
300,013	2,11
300,383	2,01
300,754	1,98
301,124	1,94
301,494	1,87
301,864	2
302,234	2
302,604	2,35
302,974	2,61
303,344	2,8
303,714	2,96
304,084	3,06
304,454	3,39
304,824	3,34
305,194	3,43
305,563	3,52
305,933	3,89
306,303	4,32
306,673	4,58
307,042	4,83
307,412	4,83
307,781	5,12
308,151	5,4
308,521	5,97
308,89	6,29
309,259	6,59
309,629	6,77
309,998	6,9
310,368	6,91
310,737	6,94
311,106	6,92
311,475	6,9
311,845	7,06
312,214	6,89
312,583	6,9
312,952	6,93
313,321	7,01
313,69	6,97
314,059	6,89
314,428	7,03
314,797	7,16
315,166	7,29
315,535	7,17
315,904	7,03
316,272	6,66
316,641	6,66
317,01	6,6
317,379	6,7
317,747	7
318,116	7,01
318,484	7,14
318,853	7,27
319,221	7,29
319,59	7,29
319,958	7,39
320,327	7,67
320,695	7,95
321,063	8,15
321,432	8,35
321,8	8,53
322,168	8,5
322,536	8,41
322,905	8,33
323,273	8,45
323,641	8,52
324,009	8,64
324,377	8,79
324,745	8,97
325,113	9,17
325,481	9,3
325,849	9,42
326,216	9,34
326,584	9,45
326,952	9,62
327,32	9,77
327,687	9,89
328,055	10,08
328,423	10,18
328,79	10,34
329,158	10,46
329,525	10,53
329,893	10,69
330,26	10,89
330,628	11,19
330,995	11,34
331,362	11,56
331,73	11,79
332,097	11,84
332,464	11,8
332,831	11,77
333,199	11,93
333,566	12,03
333,933	12,35
334,3	12,39
334,667	12,56
335,034	12,6
335,401	12,76
335,768	12,82
336,135	12,88
336,502	13
336,868	13,18
337,235	13,35
337,602	13,53
337,969	13,64
338,335	13,68
338,702	13,74
339,069	13,8
339,435	13,91
339,802	14,06
340,168	14,26
340,535	14,38
340,901	14,38
341,267	14,47
341,634	14,5
342	14,74
342,366	14,82
342,733	14,93
343,099	15,05
343,465	15,19
343,831	15,29
344,197	15,36
344,563	15,43
344,929	15,5
345,295	15,49
345,661	15,52
346,027	15,65
346,393	15,76
346,759	15,91
347,125	15,96
347,491	16,12
347,856	16,23
348,222	16,31
348,588	16,42
348,953	16,57
349,319	16,71
349,684	16,74
350,05	16,73
350,415	16,86
350,781	16,95
351,146	17,06
351,512	17,12
351,877	17,12
352,242	17,12
352,608	17,23
352,973	17,35
353,338	17,46
353,703	17,48
354,068	17,54
354,433	17,57
354,798	17,65
355,164	17,63
355,528	17,65
355,893	17,69
356,258	17,73
356,623	17,66
356,988	17,57
357,353	17,54
357,718	17,74
358,082	17,73
358,447	17,77
358,812	17,73
359,176	17,83
359,541	17,97
359,905	18,13
360,27	18,14
360,634	18,15
360,999	18,13
361,363	18,23
361,728	18,31
362,092	18,38
362,456	18,47
362,821	18,54
363,185	18,6
363,549	18,67
363,913	18,72
364,277	18,89
364,641	19,09
365,005	19,24
365,369	19,2
365,733	19,35
366,097	19,47
366,461	19,53
366,825	19,49
367,189	19,53
367,553	19,55
367,916	19,63
368,28	19,81
368,644	19,97
369,007	20,03
369,371	20,15
369,734	20,28
370,098	20,38
370,461	20,52
370,825	20,62
371,188	20,7
371,552	20,75
371,915	20,8
372,278	20,8
372,642	20,9
373,005	20,95
373,368	20,97
373,731	21,02
374,094	21,1
374,457	21,21
374,82	21,26
375,183	21,4
375,546	21,49
375,909	21,51
376,272	21,57
376,635	21,69
376,998	21,74
377,361	21,76
377,723	21,81
378,086	21,8
378,449	21,85
378,811	21,95
379,174	22,02
379,537	22,1
379,899	22,16
380,262	22,16
380,624	22,19
380,987	22,25
381,349	22,29
381,711	22,4
382,074	22,49
382,436	22,58
382,798	22,7
383,16	22,73
383,522	22,7
383,884	22,75
384,247	22,72
384,609	22,74
384,971	22,78
385,333	22,79
385,695	22,83
386,056	22,83
386,418	22,82
386,78	22,91
387,142	22,92
387,504	22,95
387,865	23,03
388,227	23,1
388,589	23,14
388,95	23,15
389,312	23,17
389,673	23,23
390,035	23,2
390,396	23,17
390,758	23,18
391,119	23,26
391,48	23,28
391,842	23,33
392,203	23,37
392,564	23,39
392,925	23,45
393,286	23,48
393,648	23,52
394,009	23,54
394,37	23,51
394,731	23,57
395,092	23,6
395,452	23,62
395,813	23,68
396,174	23,76
396,535	23,82
396,896	23,86
397,257	23,86
397,617	23,94
397,978	24,01
398,338	24,04
398,699	24,09
399,06	24,16
399,42	24,18
399,781	24,26
400,141	24,3
400,501	24,31
400,862	24,37
401,222	24,41
401,582	24,45
401,943	24,47
402,303	24,51
402,663	24,56
403,023	24,56
403,383	24,57
403,743	24,56
404,103	24,58
404,463	24,63
404,823	24,67
405,183	24,68
405,543	24,64
405,903	24,7
406,262	24,68
406,622	24,67
406,982	24,68
407,342	24,71
407,701	24,73
408,061	24,76
408,42	24,76
408,78	24,77
409,139	24,78
409,499	24,79
409,858	24,79
410,217	24,8
410,577	24,83
410,936	24,82
411,295	24,78
411,655	24,78
412,014	24,75
412,373	24,75
412,732	24,74
413,091	24,74
413,45	24,71
413,809	24,69
414,168	24,65
414,527	24,6
414,886	24,58
415,245	24,59
415,603	24,55
415,962	24,54
416,321	24,51
416,679	24,46
417,038	24,43
417,397	24,39
417,755	24,36
418,114	24,35
418,472	24,36
418,831	24,36
419,189	24,36
419,547	24,37
419,906	24,35
420,264	24,34
420,622	24,35
420,981	24,36
421,339	24,4
421,697	24,42
422,055	24,47
422,413	24,49
422,771	24,5
423,129	24,53
423,487	24,55
423,845	24,57
424,203	24,63
424,56	24,68
424,918	24,73
425,276	24,79
425,634	24,82
425,991	24,86
426,349	24,93
426,707	24,99
427,064	25,01
427,422	25,06
427,779	25,13
428,137	25,18
428,494	25,24
428,851	25,26
429,209	25,27
429,566	25,25
429,923	25,23
430,28	25,24
430,637	25,26
430,995	25,25
431,352	25,27
431,709	25,26
432,066	25,29
432,423	25,3
432,78	25,33
433,137	25,32
433,493	25,29
433,85	25,28
434,207	25,23
434,564	25,22
434,92	25,23
435,277	25,23
435,634	25,23
435,99	25,21
436,347	25,2
436,703	25,21
437,06	25,24
437,416	25,26
437,773	25,26
438,129	25,26
438,485	25,29
438,841	25,27
439,198	25,29
439,554	25,3
439,91	25,3
440,266	25,32
440,622	25,34
440,978	25,36
441,334	25,36
441,69	25,38
442,046	25,37
442,402	25,36
442,758	25,36
443,113	25,34
443,469	25,36
443,825	25,37
444,181	25,36
444,536	25,36
444,892	25,35
445,247	25,37
445,603	25,37
445,958	25,38
446,314	25,41
446,669	25,42
447,025	25,42
447,38	25,42
447,735	25,4
448,09	25,4
448,446	25,4
448,801	25,42
449,156	25,42
449,511	25,48
449,866	25,51
450,221	25,55
450,576	25,59
450,931	25,63
451,286	25,66
451,641	25,71
451,995	25,74
452,35	25,79
452,705	25,79
453,06	25,8
453,414	25,81
453,769	25,8
454,123	25,81
454,478	25,82
454,832	25,84
455,187	25,84
455,541	25,85
455,896	25,86
456,25	25,85
456,604	25,85
456,958	25,84
457,313	25,85
457,667	25,83
458,021	25,82
458,375	25,82
458,729	25,83
459,083	25,83
459,437	25,85
459,791	25,83
460,145	25,85
460,499	25,85
460,852	25,83
461,206	25,86
461,56	25,85
461,914	25,85
462,267	25,85
462,621	25,88
462,974	25,9
463,328	25,91
463,681	25,95
464,035	25,96
464,388	25,98
464,742	25,97
465,095	25,98
465,448	26,02
465,801	26,02
466,155	26,03
466,508	26,03
466,861	26,03
467,214	26,05
467,567	26,06
467,92	26,07
468,273	26,11
468,626	26,08
468,979	26,09
469,332	26,1
469,684	26,11
470,037	26,09
470,39	26,09
470,743	26,1
471,095	26,1
471,448	26,13
471,8	26,14
472,153	26,18
472,505	26,22
472,858	26,2
473,21	26,22
473,562	26,24
473,915	26,24
474,267	26,24
474,619	26,24
474,971	26,25
475,324	26,26
475,676	26,27
476,028	26,27
476,38	26,29
476,732	26,29
477,084	26,3
477,436	26,3
477,787	26,3
478,139	26,33
478,491	26,34
478,843	26,34
479,195	26,35
479,546	26,32
479,898	26,3
480,249	26,34
480,601	26,39
480,952	26,42
481,304	26,41
481,655	26,38
482,007	26,37
482,358	26,36
482,709	26,34
483,061	26,33
483,412	26,32
483,763	26,3
484,114	26,29
484,465	26,28
484,816	26,28
485,167	26,27
485,518	26,25
485,869	26,23
486,22	26,22
486,571	26,22
486,922	26,23
487,272	26,24
487,623	26,21
487,974	26,17
488,324	26,14
488,675	26,14
489,025	26,16
489,376	26,15
489,726	26,17
490,077	26,18
490,427	26,2
490,778	26,22
491,128	26,24
491,478	26,27
491,828	26,27
492,179	26,29
492,529	26,32
492,879	26,36
493,229	26,4
493,579	26,43
493,929	26,42
494,279	26,43
494,629	26,43
494,979	26,44
495,328	26,46
495,678	26,49
496,028	26,51
496,378	26,54
496,727	26,57
497,077	26,57
497,426	26,58
497,776	26,58
498,125	26,6
498,475	26,61
498,824	26,61
499,174	26,63
499,523	26,66
499,872	26,66
500,221	26,65
500,571	26,64
500,92	26,65
501,269	26,68
501,618	26,67
501,967	26,69
502,316	26,72
502,665	26,71
503,014	26,71
503,363	26,72
503,711	26,75
504,06	26,77
504,409	26,76
504,758	26,77
505,106	26,77
505,455	26,76
505,803	26,78
506,152	26,78
506,5	26,77
506,849	26,75
507,197	26,74
507,546	26,74
507,894	26,75
508,242	26,75
508,59	26,78
508,939	26,79
509,287	26,8
509,635	26,8
509,983	26,81
510,331	26,81
510,679	26,82
511,027	26,83
511,375	26,84
511,723	26,87
512,07	26,91
512,418	26,92
512,766	26,95
513,114	26,97
513,461	26,98
513,809	26,99
514,156	27
514,504	27,01
514,851	27,02
515,199	27,03
515,546	27,04
515,893	27,01
516,241	27,02
516,588	26,98
516,935	26,99
517,282	26,99
517,63	27,03
517,977	27,03
518,324	27,03
518,671	27,01
519,018	27
519,365	26,97
519,711	26,97
520,058	26,97
520,405	26,94
520,752	26,95
521,099	26,97
521,445	26,98
521,792	26,98
522,138	26,96
522,485	26,95
522,832	26,96
523,178	26,98
523,524	26,96
523,871	26,99
524,217	26,99
524,563	26,98
524,91	26,97
525,256	27
525,602	27,05
525,948	27,06
526,294	27,04
526,64	27,04
526,986	27,04
527,332	27,01
527,678	27,01
528,024	27
528,37	27
528,716	27
529,061	27,02
529,407	27,03
529,753	27,03
530,098	27,01
530,444	27,01
530,789	27,02
531,135	27,03
531,48	27,04
531,826	27,05
532,171	27,04
532,516	27,01
532,862	26,99
533,207	26,98
533,552	27
533,897	27,02
534,242	27,01
534,587	27,04
534,932	27,06
535,277	27,09
535,622	27,09
535,967	27,12
536,312	27,13
536,657	27,13
537,001	27,15
537,346	27,19
537,691	27,2
538,035	27,2
538,38	27,19
538,724	27,19
539,069	27,18
539,413	27,2
539,758	27,2
540,102	27,18
540,446	27,18
540,791	27,18
541,135	27,17
541,479	27,19
541,823	27,19
542,167	27,19
542,512	27,18
542,856	27,16
543,2	27,13
543,543	27,1
543,887	27,12
544,231	27,14
544,575	27,13
544,919	27,12
545,262	27,15
545,606	27,14
545,95	27,14
546,293	27,14
546,637	27,14
546,98	27,15
547,324	27,18
547,667	27,19
548,011	27,2
548,354	27,22
548,697	27,22
549,04	27,24
549,384	27,25
549,727	27,25
550,07	27,3
550,413	27,33
550,756	27,39
551,099	27,35
551,442	27,35
551,785	27,36
552,128	27,37
552,47	27,34
552,813	27,38
553,156	27,38
553,499	27,36
553,841	27,36
554,184	27,37
554,526	27,35
554,869	27,34
555,211	27,31
555,554	27,27
555,896	27,25
556,238	27,24
556,581	27,2
556,923	27,15
557,265	27,13
557,607	27,11
557,949	27,08
558,291	27,08
558,633	27,05
558,975	27,02
559,317	27,01
559,659	27
560,001	26,98
560,343	26,99
560,685	27,03
561,026	27,01
561,368	26,98
561,71	26,98
562,051	26,98
562,393	27,01
562,734	27,02
563,076	27
563,417	26,97
563,759	26,98
564,1	26,99
564,441	26,96
564,782	26,95
565,124	26,92
565,465	26,91
565,806	26,91
566,147	26,91
566,488	26,9
566,829	26,87
567,17	26,84
567,511	26,82
567,851	26,82
568,192	26,81
568,533	26,82
568,874	26,82
569,214	26,81
569,555	26,77
569,895	26,79
570,236	26,81
570,576	26,8
570,917	26,8
571,257	26,82
571,598	26,84
571,938	26,82
572,278	26,83
572,618	26,83
572,959	26,82
573,299	26,81
573,639	26,8
573,979	26,79
574,319	26,79
574,659	26,81
574,999	26,77
575,339	26,74
575,678	26,72
576,018	26,67
576,358	26,64
576,698	26,63
577,037	26,58
577,377	26,55
577,716	26,57
578,056	26,55
578,395	26,54
578,735	26,54
579,074	26,53
579,413	26,52
579,753	26,44
580,092	26,44
580,431	26,44
580,77	26,42
581,109	26,38
581,448	26,35
581,787	26,31
582,126	26,33
582,465	26,32
582,804	26,35
583,143	26,42
583,482	26,44
583,82	26,45
584,159	26,48
584,498	26,47
584,836	26,45
585,175	26,41
585,514	26,4
585,852	26,39
586,19	26,44
586,529	26,44
586,867	26,51
587,205	26,51
587,544	26,49
587,882	26,5
588,22	26,55
588,558	26,57
588,896	26,65
589,234	26,64
589,572	26,69
589,91	26,67
590,248	26,65
590,586	26,64
590,924	26,62
591,262	26,64
591,599	26,67
591,937	26,71
592,275	26,72
592,612	26,72
592,95	26,72
593,287	26,68
593,625	26,72
593,962	26,73
594,299	26,76
594,637	26,8
594,974	26,81
595,311	26,82
595,648	26,82
595,985	26,73
596,322	26,75
596,659	26,72
596,996	26,71
597,333	26,71
597,67	26,7
598,007	26,71
598,344	26,71
598,681	26,74
599,017	26,72
599,354	26,74
599,691	26,77
600,027	26,78
600,364	26,79
600,7	26,8
601,037	26,82
601,373	26,82
601,71	26,84
602,046	26,89
602,382	26,88
602,718	26,89
603,054	26,92
603,391	26,93
603,727	26,93
604,063	27
604,399	27
604,735	27,02
605,071	27,03
605,406	27,01
605,742	27
606,078	27,02
606,414	27,02
606,749	27
607,085	27,01
607,421	27,03
607,756	27,02
608,092	27
608,427	26,96
608,762	26,95
609,098	26,9
609,433	26,91
609,768	26,88
610,104	26,88
610,439	26,86
610,774	26,87
611,109	26,81
611,444	26,83
611,779	26,83
612,114	26,85
612,449	26,86
612,784	26,85
613,118	26,82
613,453	26,8
613,788	26,81
614,123	26,76
614,457	26,68
614,792	26,66
615,126	26,64
615,461	26,67
615,795	26,67
616,13	26,7
616,464	26,66
616,798	26,72
617,132	26,73
617,467	26,73
617,801	26,75
618,135	26,77
618,469	26,77
618,803	26,78
619,137	26,74
619,471	26,73
619,805	26,7
620,139	26,72
620,472	26,75
620,806	26,76
621,14	26,79
621,473	26,83
621,807	26,82
622,141	26,83
622,474	26,8
622,808	26,83
623,141	26,8
623,474	26,85
623,808	26,83
624,141	26,88
624,474	26,91
624,807	26,89
625,141	26,86
625,474	26,87
625,807	26,88
626,14	26,85
626,473	26,87
626,806	26,88
627,138	26,87
627,471	26,89
627,804	26,86
628,137	26,87
628,469	26,84
628,802	26,85
629,135	26,86
629,467	26,95
629,8	26,94
630,132	26,95
630,465	26,97
630,797	27,02
631,129	26,94
631,461	26,91
631,794	26,93
632,126	26,93
632,458	26,88
632,79	26,85
633,122	26,96
633,454	26,95
633,786	26,94
634,118	26,94
634,45	26,98
634,781	27
635,113	27
635,445	27,02
635,777	27,02
636,108	27,01
636,44	26,9
636,771	26,9
637,103	26,93
637,434	26,85
637,765	26,8
638,097	26,87
638,428	26,87
638,759	26,88
639,09	26,94
639,422	26,99
639,753	27,01
640,084	26,93
640,415	26,97
640,746	26,98
641,077	26,94
641,407	26,89
641,738	26,88
642,069	26,87
642,4	26,84
642,73	26,83
643,061	26,84
643,392	26,91
643,722	26,89
644,053	26,86
644,383	26,91
644,713	26,94
645,044	26,91
645,374	26,93
645,704	26,88
646,034	26,82
646,365	26,81
646,695	26,8
647,025	26,87
647,355	26,81
647,685	26,84
