Data from zc_m3_p3_Reflection_1,txt Node
Date: Wed Nov 25 16:54:49 GMT-03:00 2020
User: Darío
Spectrometer: USB2E3644
Trigger mode: 4
Integration Time (sec): 9,000000E-2
Scans to average: 10
Electric dark correction enabled: true
Nonlinearity correction enabled: false
Boxcar width: 10
XAxis mode: Wavelengths
Number of Pixels in Spectrum: 2048
>>>>>Begin Spectral Data<<<<<
178,315	54,32
178,696	56,52
179,076	69,92
179,457	78,2
179,838	76,83
180,218	68,75
180,599	85,16
180,979	67,27
181,36	-490
181,74	411,76
182,121	225
182,501	143,12
182,881	141,09
183,262	141,45
183,642	146,9
184,022	152,04
184,402	144,03
184,783	143,93
185,163	134,28
185,543	139,08
185,923	141,62
186,303	139,86
186,683	142,62
187,063	141,83
187,443	140,85
187,823	139,34
188,203	138,34
188,583	139,98
188,963	139,06
189,343	135,03
189,723	134,17
190,102	130,84
190,482	130,3
190,862	127,9
191,242	125,77
191,621	124,39
192,001	120,81
192,38	118,67
192,76	117,8
193,14	117
193,519	113,71
193,898	111,77
194,278	111,56
194,657	110,08
195,037	110,56
195,416	111,7
195,795	110,37
196,175	109,89
196,554	112,71
196,933	116
197,312	117,92
197,692	117,12
198,071	117,65
198,45	118,45
198,829	117,86
199,208	118,23
199,587	118,91
199,966	120,41
200,345	122,01
200,724	121,55
201,103	121,73
201,482	121,18
201,86	119,62
202,239	117,91
202,618	116,83
202,997	116,1
203,375	114,66
203,754	113,58
204,133	113,14
204,511	110,53
204,89	106,66
205,269	104,66
205,647	104,65
206,026	105,72
206,404	106,97
206,782	108,16
207,161	107,51
207,539	107,65
207,918	109,5
208,296	111,26
208,674	110,31
209,052	110,89
209,431	112,56
209,809	114,59
210,187	116,41
210,565	117,17
210,943	118,42
211,321	118,56
211,699	119,7
212,077	118,78
212,455	118,84
212,833	120,02
213,211	120,41
213,589	121,3
213,967	119,2
214,345	117,43
214,722	117,87
215,1	116,51
215,478	113,93
215,855	110,32
216,233	108,24
216,611	108,36
216,988	107,55
217,366	104,75
217,743	104,45
218,121	103,52
218,498	102,44
218,876	101,78
219,253	102,1
219,631	104,63
220,008	108,06
220,385	108,96
220,762	109,34
221,14	109,13
221,517	107,79
221,894	108,62
222,271	108,44
222,648	108,91
223,025	113,1
223,402	116,44
223,78	118,36
224,157	118,08
224,533	121,07
224,91	123,17
225,287	128,06
225,664	133,36
226,041	136,93
226,418	142,28
226,795	142,06
227,171	144,76
227,548	148,39
227,925	149,69
228,301	155,07
228,678	163,77
229,055	164,08
229,431	166,33
229,808	164,18
230,184	164,6
230,561	166,63
230,937	170,27
231,313	170,86
231,69	174,66
232,066	178,62
232,442	185,14
232,819	190,34
233,195	188,74
233,571	186,61
233,947	188,12
234,323	186,57
234,699	197,29
235,075	201,81
235,451	206,81
235,827	213,83
236,203	217,7
236,579	214,23
236,955	222,56
237,331	236,61
237,707	268,11
238,083	307,93
238,459	358,58
238,834	433,07
239,21	622,59
239,586	1070,25
239,961	2553,03
240,337	6032,14
240,713	-2548,44
241,088	-980,63
241,464	-665,95
241,839	-483,76
242,215	-326
242,59	-235,23
242,965	-163,39
243,341	-113,97
243,716	-84,5
244,091	-70,69
244,467	-60,03
244,842	-53,98
245,217	-51,05
245,592	-48,68
245,967	-49,01
246,343	-47,85
246,718	-48,67
247,093	-48,4
247,468	-47,89
247,843	-47,79
248,218	-45,46
248,593	-44,76
248,967	-43,6
249,342	-43,02
249,717	-42,56
250,092	-43,38
250,467	-43,83
250,841	-45,73
251,216	-50,32
251,591	-56,68
251,965	-61,7
252,34	-67,75
252,714	-70,28
253,089	-71,68
253,463	-70,55
253,838	-66,02
254,212	-63
254,587	-59,44
254,961	-57,41
255,335	-52,95
255,71	-45,15
256,084	-36,45
256,458	-29,83
256,832	-24,76
257,206	-22,2
257,581	-20,66
257,955	-19,75
258,329	-18,87
258,703	-18,16
259,077	-17,58
259,451	-16,68
259,825	-16,22
260,199	-16,06
260,572	-16,48
260,946	-17,08
261,32	-17,48
261,694	-17,6
262,068	-17,47
262,441	-16,71
262,815	-15,78
263,189	-15,51
263,562	-15,71
263,936	-17,02
264,309	-18,39
264,683	-20,22
265,056	-20,55
265,43	-19,4
265,803	-18,37
266,176	-17,84
266,55	-17,53
266,923	-16,73
267,296	-16,75
267,67	-16,79
268,043	-16,29
268,416	-15,74
268,789	-14,74
269,162	-13,27
269,535	-12,28
269,908	-11,61
270,281	-11,26
270,654	-11,23
271,027	-11,37
271,4	-11,73
271,773	-12,17
272,146	-12,57
272,519	-12,74
272,891	-13,12
273,264	-14,1
273,637	-14,4
274,01	-14,77
274,382	-15,16
274,755	-15,18
275,127	-15,3
275,5	-15,2
275,872	-15,18
276,245	-15,21
276,617	-15,3
276,99	-16,36
277,362	-17,32
277,734	-17,4
278,107	-17,51
278,479	-16,46
278,851	-15,87
279,223	-15,22
279,596	-14,63
279,968	-14,01
280,34	-14,08
280,712	-14,07
281,084	-13,99
281,456	-13,88
281,828	-13,36
282,2	-12,57
282,572	-11,99
282,944	-11,36
283,315	-10,85
283,687	-10,21
284,059	-9,49
284,431	-8,87
284,802	-8,38
285,174	-7,96
285,546	-8,02
285,917	-8,25
286,289	-8,61
286,66	-8,54
287,032	-8,4
287,403	-8,27
287,775	-8,08
288,146	-7,94
288,518	-7,77
288,889	-7,75
289,26	-7,69
289,632	-7,74
290,003	-8,07
290,374	-8,72
290,745	-9,11
291,116	-9,35
291,487	-9,62
291,858	-9,98
292,229	-10,35
292,6	-10,25
292,971	-10,07
293,342	-9,56
293,713	-8,67
294,084	-8,17
294,455	-7,73
294,826	-7,59
295,196	-7,27
295,567	-7,01
295,938	-6,75
296,308	-6,72
296,679	-6,19
297,05	-5,66
297,42	-5,41
297,791	-4,91
298,161	-4,43
298,532	-4,06
298,902	-3,9
299,272	-3,74
299,643	-3,37
300,013	-3,1
300,383	-2,98
300,754	-2,91
301,124	-3,11
301,494	-3,35
301,864	-3,39
302,234	-3,51
302,604	-3,15
302,974	-3
303,344	-3,08
303,714	-2,83
304,084	-2,5
304,454	-2,27
304,824	-2,2
305,194	-2,1
305,563	-2,2
305,933	-2,14
306,303	-1,97
306,673	-1,55
307,042	-1,29
307,412	-1,39
307,781	-1,25
308,151	-1,2
308,521	-1,01
308,89	-0,68
309,259	-0,47
309,629	-0,37
309,998	-0,41
310,368	-0,53
310,737	-0,56
311,106	-0,67
311,475	-0,83
311,845	-0,96
312,214	-1,19
312,583	-1,48
312,952	-1,51
313,321	-1,57
313,69	-1,63
314,059	-1,57
314,428	-1,55
314,797	-1,53
315,166	-1,38
315,535	-1,32
315,904	-1,4
316,272	-1,7
316,641	-1,75
317,01	-1,85
317,379	-1,91
317,747	-1,63
318,116	-1,54
318,484	-1,76
318,853	-1,68
319,221	-1,67
319,59	-1,4
319,958	-1,2
320,327	-0,79
320,695	-0,54
321,063	-0,41
321,432	-0,28
321,8	-0,2
322,168	-0,33
322,536	-0,41
322,905	-0,45
323,273	-0,38
323,641	-0,27
324,009	-0,01
324,377	0,03
324,745	0,07
325,113	0,3
325,481	0,34
325,849	0,33
326,216	0,54
326,584	0,57
326,952	0,65
327,32	0,68
327,687	0,83
328,055	0,81
328,423	0,86
328,79	1,02
329,158	1,1
329,525	1,15
329,893	1,28
330,26	1,4
330,628	1,48
330,995	1,48
331,362	1,76
331,73	1,99
332,097	2,23
332,464	2,4
332,831	2,47
333,199	2,63
333,566	2,83
333,933	2,98
334,3	3,19
334,667	3,45
335,034	3,42
335,401	3,44
335,768	3,49
336,135	3,51
336,502	3,54
336,868	3,71
337,235	3,86
337,602	3,96
337,969	4
338,335	4,02
338,702	4,05
339,069	4,02
339,435	4,07
339,802	4,11
340,168	4,19
340,535	4,11
340,901	4,09
341,267	3,99
341,634	4,03
342	4,01
342,366	4,04
342,733	4,1
343,099	4,17
343,465	4,27
343,831	4,38
344,197	4,57
344,563	4,62
344,929	4,58
345,295	4,53
345,661	4,64
346,027	4,74
346,393	4,87
346,759	4,96
347,125	4,94
347,491	5,01
347,856	5,03
348,222	5,18
348,588	5,26
348,953	5,44
349,319	5,52
349,684	5,62
350,05	5,65
350,415	5,74
350,781	5,86
351,146	5,97
351,512	5,99
351,877	6,02
352,242	6,07
352,608	6,2
352,973	6,3
353,338	6,34
353,703	6,35
354,068	6,35
354,433	6,4
354,798	6,48
355,164	6,4
355,528	6,35
355,893	6,41
356,258	6,41
356,623	6,38
356,988	6,4
357,353	6,44
357,718	6,47
358,082	6,61
358,447	6,64
358,812	6,65
359,176	6,82
359,541	6,98
359,905	7,09
360,27	7,08
360,634	7,14
360,999	7,22
361,363	7,39
361,728	7,45
362,092	7,48
362,456	7,52
362,821	7,67
363,185	7,87
363,549	7,96
363,913	8,09
364,277	8,18
364,641	8,28
365,005	8,42
365,369	8,56
365,733	8,61
366,097	8,74
366,461	8,82
366,825	8,8
367,189	8,8
367,553	8,87
367,916	9,02
368,28	9,15
368,644	9,23
369,007	9,27
369,371	9,36
369,734	9,53
370,098	9,74
370,461	9,87
370,825	9,94
371,188	10,07
371,552	10,19
371,915	10,3
372,278	10,39
372,642	10,45
373,005	10,48
373,368	10,49
373,731	10,54
374,094	10,59
374,457	10,72
374,82	10,78
375,183	10,86
375,546	10,93
375,909	10,99
376,272	11,06
376,635	11,19
376,998	11,32
377,361	11,34
377,723	11,31
378,086	11,3
378,449	11,36
378,811	11,4
379,174	11,43
379,537	11,51
379,899	11,57
380,262	11,62
380,624	11,7
380,987	11,79
381,349	11,82
381,711	11,9
382,074	11,94
382,436	12,03
382,798	12,21
383,16	12,25
383,522	12,24
383,884	12,27
384,247	12,26
384,609	12,31
384,971	12,39
385,333	12,46
385,695	12,54
386,056	12,51
386,418	12,48
386,78	12,55
387,142	12,54
387,504	12,52
387,865	12,57
388,227	12,57
388,589	12,62
388,95	12,67
389,312	12,68
389,673	12,71
390,035	12,66
390,396	12,55
390,758	12,55
391,119	12,6
391,48	12,65
391,842	12,67
392,203	12,65
392,564	12,69
392,925	12,74
393,286	12,77
393,648	12,87
394,009	12,97
394,37	13,03
394,731	13,08
395,092	13,15
395,452	13,13
395,813	13,2
396,174	13,24
396,535	13,27
396,896	13,29
397,257	13,28
397,617	13,35
397,978	13,43
398,338	13,49
398,699	13,56
399,06	13,64
399,42	13,66
399,781	13,72
400,141	13,68
400,501	13,69
400,862	13,72
401,222	13,7
401,582	13,71
401,943	13,67
402,303	13,71
402,663	13,71
403,023	13,76
403,383	13,77
403,743	13,77
404,103	13,78
404,463	13,81
404,823	13,88
405,183	13,95
405,543	13,96
405,903	13,96
406,262	13,9
406,622	13,86
406,982	13,87
407,342	13,89
407,701	13,95
408,061	14
408,42	13,96
408,78	13,96
409,139	13,96
409,499	13,95
409,858	13,92
410,217	13,94
410,577	13,98
410,936	13,96
411,295	13,96
411,655	13,94
412,014	13,96
412,373	13,93
412,732	13,88
413,091	13,85
413,45	13,82
413,809	13,85
414,168	13,83
414,527	13,79
414,886	13,78
415,245	13,74
415,603	13,67
415,962	13,65
416,321	13,65
416,679	13,62
417,038	13,58
417,397	13,55
417,755	13,52
418,114	13,49
418,472	13,48
418,831	13,49
419,189	13,5
419,547	13,48
419,906	13,47
420,264	13,46
420,622	13,44
420,981	13,45
421,339	13,44
421,697	13,44
422,055	13,47
422,413	13,47
422,771	13,49
423,129	13,52
423,487	13,55
423,845	13,55
424,203	13,58
424,56	13,63
424,918	13,67
425,276	13,73
425,634	13,79
425,991	13,82
426,349	13,85
426,707	13,9
427,064	13,93
427,422	13,97
427,779	14,04
428,137	14,12
428,494	14,2
428,851	14,25
429,209	14,3
429,566	14,3
429,923	14,34
430,28	14,36
430,637	14,35
430,995	14,35
431,352	14,38
431,709	14,37
432,066	14,4
432,423	14,41
432,78	14,37
433,137	14,37
433,493	14,38
433,85	14,4
434,207	14,37
434,564	14,4
434,92	14,43
435,277	14,43
435,634	14,43
435,99	14,4
436,347	14,39
436,703	14,43
437,06	14,42
437,416	14,44
437,773	14,42
438,129	14,44
438,485	14,45
438,841	14,46
439,198	14,46
439,554	14,46
439,91	14,48
440,266	14,51
440,622	14,5
440,978	14,51
441,334	14,48
441,69	14,49
442,046	14,46
442,402	14,43
442,758	14,42
443,113	14,41
443,469	14,41
443,825	14,44
444,181	14,44
444,536	14,46
444,892	14,44
445,247	14,48
445,603	14,49
445,958	14,53
446,314	14,54
446,669	14,56
447,025	14,56
447,38	14,56
447,735	14,55
448,09	14,58
448,446	14,6
448,801	14,63
449,156	14,66
449,511	14,72
449,866	14,76
450,221	14,81
450,576	14,87
450,931	14,92
451,286	14,97
451,641	14,99
451,995	15,01
452,35	15,06
452,705	15,07
453,06	15,07
453,414	15,09
453,769	15,09
454,123	15,12
454,478	15,13
454,832	15,13
455,187	15,13
455,541	15,12
455,896	15,1
456,25	15,09
456,604	15,07
456,958	15,07
457,313	15,04
457,667	15,03
458,021	15,03
458,375	15,02
458,729	15,03
459,083	15,04
459,437	15,07
459,791	15,07
460,145	15,08
460,499	15,1
460,852	15,1
461,206	15,11
461,56	15,09
461,914	15,11
462,267	15,13
462,621	15,17
462,974	15,16
463,328	15,19
463,681	15,24
464,035	15,27
464,388	15,29
464,742	15,31
465,095	15,34
465,448	15,38
465,801	15,37
466,155	15,4
466,508	15,42
466,861	15,42
467,214	15,44
467,567	15,44
467,92	15,46
468,273	15,47
468,626	15,48
468,979	15,52
469,332	15,5
469,684	15,53
470,037	15,54
470,39	15,57
470,743	15,57
471,095	15,57
471,448	15,61
471,8	15,62
472,153	15,68
472,505	15,71
472,858	15,71
473,21	15,75
473,562	15,76
473,915	15,75
474,267	15,76
474,619	15,77
474,971	15,79
475,324	15,79
475,676	15,8
476,028	15,79
476,38	15,8
476,732	15,81
477,084	15,83
477,436	15,81
477,787	15,81
478,139	15,82
478,491	15,82
478,843	15,79
479,195	15,76
479,546	15,7
479,898	15,67
480,249	15,62
480,601	15,61
480,952	15,58
481,304	15,58
481,655	15,56
482,007	15,54
482,358	15,53
482,709	15,53
483,061	15,51
483,412	15,51
483,763	15,51
484,114	15,51
484,465	15,5
484,816	15,49
485,167	15,49
485,518	15,49
485,869	15,49
486,22	15,5
486,571	15,51
486,922	15,53
487,272	15,54
487,623	15,56
487,974	15,56
488,324	15,58
488,675	15,58
489,025	15,61
489,376	15,62
489,726	15,64
490,077	15,66
490,427	15,68
490,778	15,7
491,128	15,71
491,478	15,73
491,828	15,76
492,179	15,81
492,529	15,86
492,879	15,87
493,229	15,9
493,579	15,93
493,929	15,93
494,279	15,94
494,629	15,94
494,979	15,97
495,328	16,01
495,678	16,04
496,028	16,08
496,378	16,12
496,727	16,17
497,077	16,2
497,426	16,21
497,776	16,21
498,125	16,23
498,475	16,24
498,824	16,26
499,174	16,27
499,523	16,27
499,872	16,26
500,221	16,28
500,571	16,3
500,92	16,31
501,269	16,35
501,618	16,38
501,967	16,4
502,316	16,42
502,665	16,42
503,014	16,44
503,363	16,46
503,711	16,46
504,06	16,45
504,409	16,44
504,758	16,45
505,106	16,47
505,455	16,46
505,803	16,46
506,152	16,46
506,5	16,46
506,849	16,46
507,197	16,47
507,546	16,5
507,894	16,49
508,242	16,5
508,59	16,49
508,939	16,49
509,287	16,5
509,635	16,52
509,983	16,53
510,331	16,56
510,679	16,55
511,027	16,56
511,375	16,59
511,723	16,6
512,07	16,63
512,418	16,64
512,766	16,67
513,114	16,71
513,461	16,75
513,809	16,77
514,156	16,77
514,504	16,76
514,851	16,72
515,199	16,74
515,546	16,73
515,893	16,74
516,241	16,74
516,588	16,76
516,935	16,76
517,282	16,75
517,63	16,74
517,977	16,75
518,324	16,76
518,671	16,77
519,018	16,78
519,365	16,78
519,711	16,77
520,058	16,77
520,405	16,77
520,752	16,76
521,099	16,77
521,445	16,81
521,792	16,82
522,138	16,84
522,485	16,83
522,832	16,84
523,178	16,83
523,524	16,84
523,871	16,85
524,217	16,84
524,563	16,83
524,91	16,81
525,256	16,8
525,602	16,81
525,948	16,78
526,294	16,75
526,64	16,73
526,986	16,73
527,332	16,72
527,678	16,72
528,024	16,71
528,37	16,73
528,716	16,71
529,061	16,73
529,407	16,74
529,753	16,75
530,098	16,75
530,444	16,77
530,789	16,76
531,135	16,77
531,48	16,78
531,826	16,8
532,171	16,82
532,516	16,85
532,862	16,86
533,207	16,88
533,552	16,91
533,897	16,94
534,242	16,95
534,587	16,98
534,932	16,99
535,277	17
535,622	16,99
535,967	17,02
536,312	17,03
536,657	17,05
537,001	17,06
537,346	17,08
537,691	17,07
538,035	17,08
538,38	17,07
538,724	17,05
539,069	17,06
539,413	17,05
539,758	17,04
540,102	17,06
540,446	17,06
540,791	17,07
541,135	17,09
541,479	17,1
541,823	17,08
542,167	17,1
542,512	17,11
542,856	17,1
543,2	17,09
543,543	17,08
543,887	17,08
544,231	17,08
544,575	17,09
544,919	17,12
545,262	17,15
545,606	17,17
545,95	17,21
546,293	17,22
546,637	17,23
546,98	17,29
547,324	17,29
547,667	17,32
548,011	17,34
548,354	17,34
548,697	17,34
549,04	17,37
549,384	17,37
549,727	17,35
550,07	17,38
550,413	17,42
550,756	17,45
551,099	17,45
551,442	17,47
551,785	17,5
552,128	17,5
552,47	17,5
552,813	17,51
553,156	17,51
553,499	17,52
553,841	17,54
554,184	17,5
554,526	17,48
554,869	17,45
555,211	17,45
555,554	17,46
555,896	17,44
556,238	17,42
556,581	17,42
556,923	17,41
557,265	17,41
557,607	17,37
557,949	17,36
558,291	17,37
558,633	17,35
558,975	17,32
559,317	17,25
559,659	17,24
560,001	17,22
560,343	17,18
560,685	17,14
561,026	17,11
561,368	17,14
561,71	17,12
562,051	17,14
562,393	17,14
562,734	17,1
563,076	17,11
563,417	17,1
563,759	17,1
564,1	17,15
564,441	17,13
564,782	17,1
565,124	17,07
565,465	17,06
565,806	17,05
566,147	17,03
566,488	17,07
566,829	17,04
567,17	17,04
567,511	17,04
567,851	17,08
568,192	17,07
568,533	17,02
568,874	17,04
569,214	17,02
569,555	16,99
569,895	17,01
570,236	16,98
570,576	16,99
570,917	16,97
571,257	16,92
571,598	16,93
571,938	16,94
572,278	16,95
572,618	16,94
572,959	16,96
573,299	16,95
573,639	16,93
573,979	16,94
574,319	16,92
574,659	16,92
574,999	16,93
575,339	16,92
575,678	16,91
576,018	16,88
576,358	16,89
576,698	16,89
577,037	16,86
577,377	16,83
577,716	16,83
578,056	16,82
578,395	16,84
578,735	16,83
579,074	16,83
579,413	16,81
579,753	16,8
580,092	16,76
580,431	16,76
580,77	16,78
581,109	16,76
581,448	16,78
581,787	16,79
582,126	16,78
582,465	16,79
582,804	16,84
583,143	16,91
583,482	16,91
583,82	16,91
584,159	16,94
584,498	16,99
584,836	17,01
585,175	16,99
585,514	16,97
585,852	16,98
586,19	17,02
586,529	17,03
586,867	17,03
587,205	17,03
587,544	17,07
587,882	17,04
588,22	17,04
588,558	17,03
588,896	17,02
589,234	17,02
589,572	17,02
589,91	17
590,248	16,94
590,586	16,97
590,924	16,98
591,262	16,97
591,599	16,98
591,937	16,96
592,275	16,98
592,612	17
592,95	17
593,287	17,04
593,625	17,1
593,962	17,14
594,299	17,17
594,637	17,19
594,974	17,23
595,311	17,26
595,648	17,28
595,985	17,3
596,322	17,3
596,659	17,33
596,996	17,36
597,333	17,36
597,67	17,37
598,007	17,38
598,344	17,39
598,681	17,41
599,017	17,43
599,354	17,42
599,691	17,43
600,027	17,46
600,364	17,44
600,7	17,41
601,037	17,46
601,373	17,5
601,71	17,52
602,046	17,56
602,382	17,56
602,718	17,55
603,054	17,53
603,391	17,54
603,727	17,51
604,063	17,51
604,399	17,52
604,735	17,53
605,071	17,53
605,406	17,55
605,742	17,55
606,078	17,59
606,414	17,61
606,749	17,61
607,085	17,59
607,421	17,58
607,756	17,57
608,092	17,52
608,427	17,5
608,762	17,46
609,098	17,4
609,433	17,41
609,768	17,41
610,104	17,42
610,439	17,36
610,774	17,36
611,109	17,33
611,444	17,32
611,779	17,33
612,114	17,36
612,449	17,38
612,784	17,33
613,118	17,3
613,453	17,28
613,788	17,25
614,123	17,22
614,457	17,24
614,792	17,24
615,126	17,21
615,461	17,13
615,795	17,14
616,13	17,17
616,464	17,17
616,798	17,19
617,132	17,19
617,467	17,28
617,801	17,32
618,135	17,36
618,469	17,4
618,803	17,38
619,137	17,38
619,471	17,35
619,805	17,38
620,139	17,35
620,472	17,38
620,806	17,44
621,14	17,43
621,473	17,45
621,807	17,49
622,141	17,51
622,474	17,57
622,808	17,61
623,141	17,63
623,474	17,62
623,808	17,64
624,141	17,67
624,474	17,65
624,807	17,61
625,141	17,58
625,474	17,6
625,807	17,61
626,14	17,58
626,473	17,6
626,806	17,6
627,138	17,63
627,471	17,62
627,804	17,62
628,137	17,66
628,469	17,63
628,802	17,65
629,135	17,69
629,467	17,73
629,8	17,73
630,132	17,73
630,465	17,74
630,797	17,73
631,129	17,7
631,461	17,75
631,794	17,78
632,126	17,77
632,458	17,75
632,79	17,74
633,122	17,8
633,454	17,8
633,786	17,79
634,118	17,78
634,45	17,79
634,781	17,79
635,113	17,78
635,445	17,83
635,777	17,78
636,108	17,72
636,44	17,7
636,771	17,74
637,103	17,75
637,434	17,75
637,765	17,8
638,097	17,81
638,428	17,75
638,759	17,71
639,09	17,73
639,422	17,73
639,753	17,69
640,084	17,64
640,415	17,66
640,746	17,71
641,077	17,74
641,407	17,71
641,738	17,68
642,069	17,68
642,4	17,67
642,73	17,69
643,061	17,74
643,392	17,76
643,722	17,73
644,053	17,75
644,383	17,76
644,713	17,71
645,044	17,7
645,374	17,74
645,704	17,77
646,034	17,8
646,365	17,8
646,695	17,83
647,025	17,88
647,355	17,88
647,685	17,86
648,015	17,85
