Data from zc_m2_p4_Reflection_1,txt Node
Date: Wed Nov 25 16:49:01 GMT-03:00 2020
User: Darío
Spectrometer: USB2E3644
Trigger mode: 4
Integration Time (sec): 9,000000E-2
Scans to average: 10
Electric dark correction enabled: true
Nonlinearity correction enabled: false
Boxcar width: 10
XAxis mode: Wavelengths
Number of Pixels in Spectrum: 2048
>>>>>Begin Spectral Data<<<<<
178,315	298,7
178,696	219,74
179,076	200,68
179,457	158,17
179,838	152,63
180,218	134,78
180,599	105,18
180,979	245,45
181,36	50,74
181,74	-73,53
182,121	311,94
182,501	181,79
182,881	192,05
183,262	176,21
183,642	176,25
184,022	170,6
184,402	177,69
184,783	175,94
185,163	162,59
185,543	160,83
185,923	155,77
186,303	152,28
186,683	147,03
187,063	144,19
187,443	140,39
187,823	135,76
188,203	129,37
188,583	123,58
188,963	123,78
189,343	123,61
189,723	121,99
190,102	121,33
190,482	119,94
190,862	117,44
191,242	117,91
191,621	119,27
192,001	119,94
192,38	117,11
192,76	117,05
193,14	116,13
193,519	114,35
193,898	112,94
194,278	111,39
194,657	112,37
195,037	111,04
195,416	110,57
195,795	110,95
196,175	112,11
196,554	114,59
196,933	114,42
197,312	111,82
197,692	110,56
198,071	108,58
198,45	106,37
198,829	107
199,208	107,54
199,587	107,4
199,966	107,14
200,345	107,9
200,724	108,15
201,103	107,09
201,482	106,41
201,86	107,55
202,239	110,28
202,618	110,38
202,997	110,4
203,375	109,37
203,754	108,61
204,133	108,77
204,511	108
204,89	107,64
205,269	108,87
205,647	110,9
206,026	113,57
206,404	115,69
206,782	114,33
207,161	114,19
207,539	113,48
207,918	113,28
208,296	111,36
208,674	110,71
209,052	110,93
209,431	112,49
209,809	111,52
210,187	106,86
210,565	104,42
210,943	104,62
211,321	105,3
211,699	107,34
212,077	108,77
212,455	109,66
212,833	111,53
213,211	110,46
213,589	109,66
213,967	108,41
214,345	106,81
214,722	105,47
215,1	102,88
215,478	101,67
215,855	99,82
216,233	99,26
216,611	96,71
216,988	96,58
217,366	96
217,743	96,13
218,121	99,08
218,498	99,8
218,876	99,21
219,253	100,4
219,631	99,95
220,008	99,23
220,385	100,1
220,762	99,36
221,14	99,5
221,517	99,5
221,894	100,57
222,271	102,06
222,648	102,75
223,025	103,82
223,402	105,51
223,78	107,57
224,157	108,94
224,533	111,26
224,91	112,57
225,287	113,56
225,664	112,59
226,041	113
226,418	116,84
226,795	120,87
227,171	121,98
227,548	124,61
227,925	127,29
228,301	126,7
228,678	127,9
229,055	130,49
229,431	132,93
229,808	130,49
230,184	132,06
230,561	137,5
230,937	140,64
231,313	142,25
231,69	147,56
232,066	154,53
232,442	159,38
232,819	165,84
233,195	170,84
233,571	178,22
233,947	176,68
234,323	175,19
234,699	177,61
235,075	184,44
235,451	187,64
235,827	189,4
236,203	191,93
236,579	202,65
236,955	219,54
237,331	238,25
237,707	283,22
238,083	346,38
238,459	440,54
238,834	789,08
239,21	3990,43
239,586	-1471,7
239,961	-882,16
240,337	-731,24
240,713	-500,43
241,088	-359,34
241,464	-299,32
241,839	-246,8
242,215	-197,17
242,59	-153,85
242,965	-116,01
243,341	-86,52
243,716	-68,36
244,091	-56,85
244,467	-49,3
244,842	-44,48
245,217	-42,75
245,592	-41,04
245,967	-41,14
246,343	-41,02
246,718	-41,86
247,093	-43,89
247,468	-45,31
247,843	-44,76
248,218	-42,48
248,593	-41,56
248,967	-40,99
249,342	-40,4
249,717	-40,21
250,092	-40,99
250,467	-42,24
250,841	-45,4
251,216	-50,88
251,591	-57,18
251,965	-63,53
252,34	-70,51
252,714	-75,09
253,089	-75,3
253,463	-75
253,838	-70,74
254,212	-66,92
254,587	-63,48
254,961	-60,05
255,335	-55,96
255,71	-48,79
256,084	-39,4
256,458	-32,36
256,832	-26,94
257,206	-24,17
257,581	-22,29
257,955	-21,33
258,329	-20,93
258,703	-20,06
259,077	-19,11
259,451	-18,23
259,825	-17,91
260,199	-17,53
260,572	-17,67
260,946	-18,2
261,32	-18,58
261,694	-18,93
262,068	-19,35
262,441	-18,85
262,815	-17,9
263,189	-17,25
263,562	-17,14
263,936	-18,43
264,309	-19,98
264,683	-22,49
265,056	-23,44
265,43	-23,49
265,803	-23,19
266,176	-22,32
266,55	-21,74
266,923	-21,2
267,296	-20,71
267,67	-20,05
268,043	-19,45
268,416	-19,04
268,789	-17,79
269,162	-16,35
269,535	-15,07
269,908	-13,86
270,281	-13,41
270,654	-13,39
271,027	-13,56
271,4	-14,25
271,773	-14,59
272,146	-15,02
272,519	-15,09
272,891	-15,63
273,264	-16,1
273,637	-16,41
274,01	-16,61
274,382	-17
274,755	-16,98
275,127	-17,22
275,5	-17,15
275,872	-16,61
276,245	-15,99
276,617	-16,23
276,99	-17,14
277,362	-17,98
277,734	-18,31
278,107	-18,25
278,479	-17,22
278,851	-16,35
279,223	-15,3
279,596	-14,5
279,968	-13,73
280,34	-13,29
280,712	-13,17
281,084	-12,98
281,456	-12,72
281,828	-12,29
282,2	-11,72
282,572	-11,07
282,944	-10,38
283,315	-9,89
283,687	-9,6
284,059	-9,32
284,431	-8,93
284,802	-8,27
285,174	-7,9
285,546	-7,55
285,917	-7,59
286,289	-7,97
286,66	-8
287,032	-7,86
287,403	-7,85
287,775	-7,89
288,146	-7,83
288,518	-7,38
288,889	-7,08
289,26	-6,79
289,632	-6,69
290,003	-6,66
290,374	-7,28
290,745	-7,69
291,116	-7,94
291,487	-7,91
291,858	-7,93
292,229	-7,82
292,6	-7,57
292,971	-7,32
293,342	-7,05
293,713	-6,37
294,084	-5,85
294,455	-5,54
294,826	-5,57
295,196	-5,37
295,567	-4,97
295,938	-4,73
296,308	-4,7
296,679	-4,51
297,05	-4,21
297,42	-4,01
297,791	-3,53
298,161	-3,1
298,532	-2,75
298,902	-2,3
299,272	-2,09
299,643	-1,73
300,013	-1,44
300,383	-1,34
300,754	-1,28
301,124	-1,32
301,494	-1,36
301,864	-1,47
302,234	-1,41
302,604	-0,93
302,974	-0,52
303,344	-0,34
303,714	-0,18
304,084	0,04
304,454	0,29
304,824	0,47
305,194	0,66
305,563	0,56
305,933	0,8
306,303	0,97
306,673	1,21
307,042	1,23
307,412	1,11
307,781	1,35
308,151	1,71
308,521	1,95
308,89	2,12
309,259	2,32
309,629	2,61
309,998	2,6
310,368	2,57
310,737	2,62
311,106	2,52
311,475	2,58
311,845	2,74
312,214	2,84
312,583	2,79
312,952	3,05
313,321	3,24
313,69	3,26
314,059	3,42
314,428	3,5
314,797	3,81
315,166	4,09
315,535	4,1
315,904	4,03
316,272	3,94
316,641	4,17
317,01	4,24
317,379	4,34
317,747	4,61
318,116	4,61
318,484	4,63
318,853	4,8
319,221	5
319,59	5,28
319,958	5,26
320,327	5,39
320,695	5,13
321,063	5,03
321,432	5,29
321,8	5,53
322,168	5,53
322,536	5,56
322,905	5,55
323,273	5,63
323,641	5,7
324,009	5,91
324,377	5,96
324,745	6,1
325,113	6,37
325,481	6,52
325,849	6,57
326,216	6,68
326,584	6,76
326,952	6,8
327,32	6,76
327,687	6,91
328,055	7,12
328,423	7,48
328,79	7,73
329,158	7,73
329,525	7,81
329,893	7,87
330,26	7,97
330,628	8,18
330,995	8,16
331,362	8,24
331,73	8,35
332,097	8,55
332,464	8,61
332,831	8,49
333,199	8,59
333,566	8,8
333,933	8,86
334,3	9,09
334,667	9,3
335,034	9,31
335,401	9,4
335,768	9,39
336,135	9,4
336,502	9,51
336,868	9,8
337,235	9,92
337,602	10,21
337,969	10,29
338,335	10,39
338,702	10,53
339,069	10,56
339,435	10,73
339,802	10,8
340,168	10,93
340,535	11,1
340,901	11,23
341,267	11,29
341,634	11,41
342	11,4
342,366	11,39
342,733	11,5
343,099	11,63
343,465	11,77
343,831	11,86
344,197	11,95
344,563	11,98
344,929	11,98
345,295	11,94
345,661	12,08
346,027	12,08
346,393	12,22
346,759	12,47
347,125	12,55
347,491	12,62
347,856	12,78
348,222	12,87
348,588	12,88
348,953	13,04
349,319	13,19
349,684	13,31
350,05	13,32
350,415	13,38
350,781	13,51
351,146	13,58
351,512	13,68
351,877	13,8
352,242	13,81
352,608	13,94
352,973	13,98
353,338	13,94
353,703	14,06
354,068	14,09
354,433	14,08
354,798	14,08
355,164	14,1
355,528	14,14
355,893	14,22
356,258	14,36
356,623	14,35
356,988	14,32
357,353	14,34
357,718	14,5
358,082	14,6
358,447	14,63
358,812	14,7
359,176	14,81
359,541	14,88
359,905	14,97
360,27	15,01
360,634	15,1
360,999	15,16
361,363	15,18
361,728	15,26
362,092	15,39
362,456	15,51
362,821	15,54
363,185	15,59
363,549	15,62
363,913	15,59
364,277	15,62
364,641	15,76
365,005	15,88
365,369	15,92
365,733	15,97
366,097	16,02
366,461	16,1
366,825	16,13
367,189	16,24
367,553	16,4
367,916	16,53
368,28	16,65
368,644	16,79
369,007	16,97
369,371	17,07
369,734	17,19
370,098	17,34
370,461	17,53
370,825	17,61
371,188	17,68
371,552	17,84
371,915	18,01
372,278	18,06
372,642	18,11
373,005	18,18
373,368	18,2
373,731	18,31
374,094	18,36
374,457	18,45
374,82	18,49
375,183	18,56
375,546	18,67
375,909	18,74
376,272	18,79
376,635	18,86
376,998	18,92
377,361	18,96
377,723	18,96
378,086	18,98
378,449	19,07
378,811	19,14
379,174	19,23
379,537	19,27
379,899	19,32
380,262	19,36
380,624	19,43
380,987	19,53
381,349	19,58
381,711	19,65
382,074	19,68
382,436	19,74
382,798	19,9
383,16	19,89
383,522	19,88
383,884	19,93
384,247	20
384,609	20,12
384,971	20,17
385,333	20,24
385,695	20,3
386,056	20,3
386,418	20,38
386,78	20,43
387,142	20,45
387,504	20,49
387,865	20,6
388,227	20,69
388,589	20,72
388,95	20,75
389,312	20,81
389,673	20,91
390,035	20,96
390,396	20,89
390,758	20,97
391,119	21,03
391,48	21,1
391,842	21,1
392,203	21,11
392,564	21,15
392,925	21,19
393,286	21,17
393,648	21,22
394,009	21,23
394,37	21,22
394,731	21,26
395,092	21,28
395,452	21,31
395,813	21,37
396,174	21,44
396,535	21,52
396,896	21,55
397,257	21,57
397,617	21,61
397,978	21,68
398,338	21,68
398,699	21,74
399,06	21,82
399,42	21,85
399,781	21,9
400,141	21,94
400,501	21,98
400,862	22,07
401,222	22,08
401,582	22,12
401,943	22,16
402,303	22,21
402,663	22,27
403,023	22,27
403,383	22,25
403,743	22,29
404,103	22,29
404,463	22,34
404,823	22,42
405,183	22,45
405,543	22,44
405,903	22,51
406,262	22,5
406,622	22,48
406,982	22,52
407,342	22,52
407,701	22,55
408,061	22,61
408,42	22,61
408,78	22,67
409,139	22,69
409,499	22,69
409,858	22,75
410,217	22,79
410,577	22,83
410,936	22,85
411,295	22,87
411,655	22,88
412,014	22,89
412,373	22,88
412,732	22,83
413,091	22,82
413,45	22,81
413,809	22,84
414,168	22,82
414,527	22,78
414,886	22,78
415,245	22,78
415,603	22,73
415,962	22,71
416,321	22,69
416,679	22,68
417,038	22,66
417,397	22,62
417,755	22,58
418,114	22,56
418,472	22,57
418,831	22,54
419,189	22,54
419,547	22,53
419,906	22,51
420,264	22,53
420,622	22,53
420,981	22,52
421,339	22,51
421,697	22,5
422,055	22,52
422,413	22,54
422,771	22,53
423,129	22,56
423,487	22,59
423,845	22,62
424,203	22,63
424,56	22,67
424,918	22,7
425,276	22,75
425,634	22,79
425,991	22,82
426,349	22,85
426,707	22,91
427,064	22,93
427,422	22,97
427,779	23,05
428,137	23,11
428,494	23,19
428,851	23,24
429,209	23,3
429,566	23,32
429,923	23,33
430,28	23,37
430,637	23,39
430,995	23,38
431,352	23,37
431,709	23,4
432,066	23,4
432,423	23,39
432,78	23,4
433,137	23,42
433,493	23,44
433,85	23,46
434,207	23,43
434,564	23,43
434,92	23,44
435,277	23,44
435,634	23,44
435,99	23,41
436,347	23,41
436,703	23,44
437,06	23,47
437,416	23,49
437,773	23,5
438,129	23,5
438,485	23,53
438,841	23,53
439,198	23,55
439,554	23,6
439,91	23,64
440,266	23,64
440,622	23,63
440,978	23,63
441,334	23,64
441,69	23,64
442,046	23,66
442,402	23,67
442,758	23,67
443,113	23,66
443,469	23,68
443,825	23,7
444,181	23,7
444,536	23,7
444,892	23,7
445,247	23,71
445,603	23,71
445,958	23,72
446,314	23,73
446,669	23,74
447,025	23,72
447,38	23,73
447,735	23,76
448,09	23,75
448,446	23,75
448,801	23,78
449,156	23,79
449,511	23,82
449,866	23,84
450,221	23,89
450,576	23,91
450,931	23,97
451,286	24
451,641	24,04
451,995	24,07
452,35	24,11
452,705	24,12
453,06	24,15
453,414	24,19
453,769	24,22
454,123	24,23
454,478	24,26
454,832	24,27
455,187	24,24
455,541	24,25
455,896	24,26
456,25	24,24
456,604	24,28
456,958	24,26
457,313	24,25
457,667	24,21
458,021	24,22
458,375	24,22
458,729	24,23
459,083	24,23
459,437	24,23
459,791	24,24
460,145	24,25
460,499	24,26
460,852	24,24
461,206	24,24
461,56	24,25
461,914	24,25
462,267	24,25
462,621	24,27
462,974	24,31
463,328	24,35
463,681	24,37
464,035	24,34
464,388	24,37
464,742	24,39
465,095	24,43
465,448	24,48
465,801	24,48
466,155	24,48
466,508	24,49
466,861	24,52
467,214	24,52
467,567	24,53
467,92	24,54
468,273	24,55
468,626	24,57
468,979	24,58
469,332	24,58
469,684	24,61
470,037	24,62
470,39	24,62
470,743	24,62
471,095	24,66
471,448	24,7
471,8	24,71
472,153	24,72
472,505	24,73
472,858	24,72
473,21	24,75
473,562	24,78
473,915	24,8
474,267	24,8
474,619	24,81
474,971	24,82
475,324	24,82
475,676	24,83
476,028	24,84
476,38	24,85
476,732	24,87
477,084	24,88
477,436	24,88
477,787	24,87
478,139	24,87
478,491	24,85
478,843	24,83
479,195	24,83
479,546	24,84
479,898	24,81
480,249	24,83
480,601	24,87
480,952	24,89
481,304	24,87
481,655	24,86
482,007	24,85
482,358	24,86
482,709	24,85
483,061	24,84
483,412	24,83
483,763	24,83
484,114	24,82
484,465	24,81
484,816	24,8
485,167	24,81
485,518	24,81
485,869	24,81
486,22	24,81
486,571	24,82
486,922	24,82
487,272	24,83
487,623	24,83
487,974	24,79
488,324	24,78
488,675	24,8
489,025	24,8
489,376	24,8
489,726	24,79
490,077	24,81
490,427	24,82
490,778	24,83
491,128	24,84
491,478	24,86
491,828	24,88
492,179	24,93
492,529	24,96
492,879	24,96
493,229	24,98
493,579	25,01
493,929	25
494,279	25,02
494,629	25,05
494,979	25,06
495,328	25,08
495,678	25,1
496,028	25,1
496,378	25,12
496,727	25,17
497,077	25,22
497,426	25,23
497,776	25,24
498,125	25,25
498,475	25,26
498,824	25,25
499,174	25,25
499,523	25,24
499,872	25,24
500,221	25,26
500,571	25,26
500,92	25,26
501,269	25,29
501,618	25,29
501,967	25,29
502,316	25,29
502,665	25,3
503,014	25,31
503,363	25,33
503,711	25,36
504,06	25,35
504,409	25,35
504,758	25,33
505,106	25,35
505,455	25,34
505,803	25,34
506,152	25,36
506,5	25,37
506,849	25,36
507,197	25,37
507,546	25,37
507,894	25,37
508,242	25,39
508,59	25,39
508,939	25,42
509,287	25,44
509,635	25,44
509,983	25,46
510,331	25,46
510,679	25,48
511,027	25,49
511,375	25,53
511,723	25,53
512,07	25,58
512,418	25,58
512,766	25,6
513,114	25,65
513,461	25,66
513,809	25,7
514,156	25,7
514,504	25,69
514,851	25,7
515,199	25,73
515,546	25,74
515,893	25,72
516,241	25,74
516,588	25,72
516,935	25,74
517,282	25,75
517,63	25,77
517,977	25,77
518,324	25,77
518,671	25,74
519,018	25,75
519,365	25,75
519,711	25,76
520,058	25,79
520,405	25,79
520,752	25,79
521,099	25,78
521,445	25,8
521,792	25,82
522,138	25,83
522,485	25,83
522,832	25,83
523,178	25,87
523,524	25,84
523,871	25,85
524,217	25,85
524,563	25,82
524,91	25,81
525,256	25,83
525,602	25,85
525,948	25,85
526,294	25,85
526,64	25,83
526,986	25,8
527,332	25,78
527,678	25,77
528,024	25,77
528,37	25,77
528,716	25,76
529,061	25,76
529,407	25,76
529,753	25,75
530,098	25,75
530,444	25,74
530,789	25,76
531,135	25,77
531,48	25,78
531,826	25,79
532,171	25,8
532,516	25,8
532,862	25,79
533,207	25,78
533,552	25,77
533,897	25,78
534,242	25,81
534,587	25,82
534,932	25,83
535,277	25,85
535,622	25,83
535,967	25,86
536,312	25,88
536,657	25,88
537,001	25,9
537,346	25,9
537,691	25,91
538,035	25,89
538,38	25,88
538,724	25,88
539,069	25,89
539,413	25,88
539,758	25,85
540,102	25,85
540,446	25,86
540,791	25,87
541,135	25,89
541,479	25,9
541,823	25,88
542,167	25,87
542,512	25,9
542,856	25,88
543,2	25,87
543,543	25,86
543,887	25,88
544,231	25,89
544,575	25,9
544,919	25,91
545,262	25,94
545,606	25,95
545,95	25,97
546,293	25,98
546,637	26,01
546,98	26,05
547,324	26,06
547,667	26,08
548,011	26,07
548,354	26,08
548,697	26,1
549,04	26,11
549,384	26,13
549,727	26,12
550,07	26,15
550,413	26,18
550,756	26,2
551,099	26,19
551,442	26,19
551,785	26,19
552,128	26,17
552,47	26,13
552,813	26,14
553,156	26,13
553,499	26,12
553,841	26,11
554,184	26,09
554,526	26,06
554,869	26,05
555,211	26,06
555,554	26,06
555,896	26,06
556,238	26,05
556,581	26,06
556,923	26,05
557,265	26,05
557,607	26,02
557,949	26,06
558,291	26,04
558,633	26
558,975	25,98
559,317	25,98
559,659	25,99
560,001	25,96
560,343	25,96
560,685	25,98
561,026	25,95
561,368	25,94
561,71	25,93
562,051	25,99
562,393	26
562,734	25,96
563,076	25,94
563,417	25,93
563,759	25,92
564,1	25,88
564,441	25,87
564,782	25,87
565,124	25,83
565,465	25,84
565,806	25,87
566,147	25,86
566,488	25,83
566,829	25,82
567,17	25,82
567,511	25,8
567,851	25,79
568,192	25,81
568,533	25,8
568,874	25,82
569,214	25,76
569,555	25,72
569,895	25,74
570,236	25,74
570,576	25,71
570,917	25,69
571,257	25,7
571,598	25,7
571,938	25,71
572,278	25,67
572,618	25,68
572,959	25,65
573,299	25,66
573,639	25,67
573,979	25,68
574,319	25,68
574,659	25,67
574,999	25,66
575,339	25,61
575,678	25,59
576,018	25,54
576,358	25,53
576,698	25,53
577,037	25,51
577,377	25,5
577,716	25,53
578,056	25,55
578,395	25,54
578,735	25,52
579,074	25,52
579,413	25,52
579,753	25,49
580,092	25,49
580,431	25,49
580,77	25,44
581,109	25,44
581,448	25,44
581,787	25,43
582,126	25,4
582,465	25,42
582,804	25,43
583,143	25,5
583,482	25,51
583,82	25,5
584,159	25,51
584,498	25,51
584,836	25,47
585,175	25,45
585,514	25,43
585,852	25,43
586,19	25,42
586,529	25,39
586,867	25,43
587,205	25,44
587,544	25,41
587,882	25,44
588,22	25,4
588,558	25,41
588,896	25,43
589,234	25,44
589,572	25,46
589,91	25,46
590,248	25,4
590,586	25,44
590,924	25,46
591,262	25,43
591,599	25,42
591,937	25,46
592,275	25,45
592,612	25,45
592,95	25,46
593,287	25,48
593,625	25,52
593,962	25,53
594,299	25,54
594,637	25,58
594,974	25,61
595,311	25,65
595,648	25,65
595,985	25,62
596,322	25,63
596,659	25,63
596,996	25,63
597,333	25,66
597,67	25,62
598,007	25,65
598,344	25,67
598,681	25,69
599,017	25,64
599,354	25,68
599,691	25,74
600,027	25,76
600,364	25,74
600,7	25,77
601,037	25,78
601,373	25,82
601,71	25,81
602,046	25,82
602,382	25,83
602,718	25,85
603,054	25,85
603,391	25,84
603,727	25,82
604,063	25,87
604,399	25,84
604,735	25,86
605,071	25,83
605,406	25,87
605,742	25,89
606,078	25,94
606,414	25,93
606,749	25,9
607,085	25,88
607,421	25,88
607,756	25,85
608,092	25,84
608,427	25,79
608,762	25,77
609,098	25,77
609,433	25,76
609,768	25,72
610,104	25,73
610,439	25,78
610,774	25,78
611,109	25,7
611,444	25,73
611,779	25,74
612,114	25,77
612,449	25,74
612,784	25,71
613,118	25,7
613,453	25,69
613,788	25,68
614,123	25,66
614,457	25,65
614,792	25,65
615,126	25,64
615,461	25,65
615,795	25,65
616,13	25,63
616,464	25,63
616,798	25,67
617,132	25,7
617,467	25,66
617,801	25,67
618,135	25,73
618,469	25,76
618,803	25,75
619,137	25,72
619,471	25,67
619,805	25,63
620,139	25,61
620,472	25,62
620,806	25,67
621,14	25,72
621,473	25,73
621,807	25,73
622,141	25,72
622,474	25,73
622,808	25,78
623,141	25,81
623,474	25,83
623,808	25,8
624,141	25,82
624,474	25,83
624,807	25,82
625,141	25,79
625,474	25,8
625,807	25,79
626,14	25,79
626,473	25,8
626,806	25,83
627,138	25,83
627,471	25,82
627,804	25,78
628,137	25,74
628,469	25,72
628,802	25,72
629,135	25,76
629,467	25,82
629,8	25,78
630,132	25,78
630,465	25,81
630,797	25,87
631,129	25,8
631,461	25,78
631,794	25,81
632,126	25,83
632,458	25,81
632,79	25,78
633,122	25,83
633,454	25,81
633,786	25,81
634,118	25,78
634,45	25,82
634,781	25,82
635,113	25,81
635,445	25,85
635,777	25,86
636,108	25,8
636,44	25,7
636,771	25,71
637,103	25,69
637,434	25,62
637,765	25,58
638,097	25,63
638,428	25,6
638,759	25,56
639,09	25,58
639,422	25,54
639,753	25,58
640,084	25,54
640,415	25,56
640,746	25,56
641,077	25,56
641,407	25,53
641,738	25,54
642,069	25,57
642,4	25,57
642,73	25,54
643,061	25,51
643,392	25,56
643,722	25,58
644,053	25,58
644,383	25,58
644,713	25,55
645,044	25,51
645,374	25,56
645,704	25,62
646,034	25,61
646,365	25,65
646,695	25,67
647,025	25,7
647,355	25,7
647,685	25,75
