Data from zc_m1_p4_Reflection_5,txt Node
Date: Wed Nov 25 16:38:41 GMT-03:00 2020
User: Darío
Spectrometer: USB2E3644
Trigger mode: 4
Integration Time (sec): 9,000000E-2
Scans to average: 10
Electric dark correction enabled: true
Nonlinearity correction enabled: false
Boxcar width: 10
XAxis mode: Wavelengths
Number of Pixels in Spectrum: 2048
>>>>>Begin Spectral Data<<<<<
178,315	128,78
178,696	141,28
179,076	173,67
179,457	221,18
179,838	329,69
180,218	290,91
180,599	199,44
180,979	60
181,36	25
181,74	46,47
182,121	92,66
182,501	101,67
182,881	107,1
183,262	115,27
183,642	127,8
184,022	119,22
184,402	120,48
184,783	118,03
185,163	117,39
185,543	125,29
185,923	131,64
186,303	129,54
186,683	130,28
187,063	135,18
187,443	138,05
187,823	132,92
188,203	128,42
188,583	125,43
188,963	123,97
189,343	125,02
189,723	125,56
190,102	125,5
190,482	125,4
190,862	122,59
191,242	118,98
191,621	118,82
192,001	119,52
192,38	118,57
192,76	119,45
193,14	118,77
193,519	115,59
193,898	112,02
194,278	112,49
194,657	111,12
195,037	107,67
195,416	105,79
195,795	107,2
196,175	107,48
196,554	107,17
196,933	106
197,312	105
197,692	104,56
198,071	104,62
198,45	105,51
198,829	105,5
199,208	107,07
199,587	108,02
199,966	108,55
200,345	107,57
200,724	104,71
201,103	103,73
201,482	104,93
201,86	105,84
202,239	104,48
202,618	104,7
202,997	106,56
203,375	107,59
203,754	108,55
204,133	110,02
204,511	109,23
204,89	109,33
205,269	111,28
205,647	112,41
206,026	111,98
206,404	110,61
206,782	111,36
207,161	110,54
207,539	110,02
207,918	109,13
208,296	108,81
208,674	111,96
209,052	114,67
209,431	113,89
209,809	113,07
210,187	113,69
210,565	114,19
210,943	115,85
211,321	117,46
211,699	118,49
212,077	121
212,455	125,28
212,833	128,69
213,211	126,85
213,589	127,21
213,967	125,85
214,345	125,17
214,722	125,74
215,1	127,25
215,478	125,63
215,855	126,53
216,233	130,04
216,611	129,6
216,988	126,93
217,366	124,97
217,743	126,22
218,121	127,9
218,498	127,94
218,876	124,58
219,253	122,89
219,631	120,13
220,008	116,15
220,385	114,95
220,762	112,22
221,14	113,34
221,517	113,41
221,894	116,19
222,271	118,69
222,648	120,57
223,025	122,72
223,402	126,55
223,78	126,35
224,157	122,94
224,533	124,63
224,91	123,41
225,287	129,04
225,664	134,29
226,041	139,62
226,418	142,94
226,795	144,75
227,171	143,13
227,548	145,97
227,925	153,84
228,301	152,95
228,678	157,92
229,055	156,19
229,431	155,04
229,808	155,35
230,184	160,51
230,561	163,18
230,937	163,06
231,313	163,77
231,69	170,47
232,066	175,66
232,442	177,56
232,819	188,86
233,195	188,18
233,571	185,09
233,947	186,38
234,323	189,29
234,699	200,81
235,075	206,1
235,451	208,91
235,827	209,32
236,203	217,74
236,579	223,05
236,955	246,31
237,331	268,77
237,707	296,19
238,083	330,75
238,459	414,44
238,834	702,46
239,21	2024,77
239,586	-2570
239,961	-845,75
240,337	-591,36
240,713	-445,82
241,088	-349,27
241,464	-295,94
241,839	-255,51
242,215	-211,35
242,59	-173,38
242,965	-126,54
243,341	-94,63
243,716	-75,59
244,091	-64,2
244,467	-55,41
244,842	-50,43
245,217	-48,25
245,592	-45,48
245,967	-44,76
246,343	-44,5
246,718	-45,81
247,093	-46,52
247,468	-46,26
247,843	-46,09
248,218	-44,61
248,593	-42,96
248,967	-41,03
249,342	-39,91
249,717	-39,73
250,092	-39,92
250,467	-40,85
250,841	-44,06
251,216	-48,58
251,591	-54,38
251,965	-61,5
252,34	-70,04
252,714	-72,78
253,089	-73,75
253,463	-75,74
253,838	-72,86
254,212	-69,27
254,587	-64,16
254,961	-60,85
255,335	-56,19
255,71	-47,48
256,084	-37,82
256,458	-31,73
256,832	-26,8
257,206	-23,77
257,581	-21,48
257,955	-20,19
258,329	-19,3
258,703	-18,26
259,077	-17,02
259,451	-15,91
259,825	-15,1
260,199	-14,24
260,572	-14,78
260,946	-15,23
261,32	-15,03
261,694	-14,35
262,068	-14,17
262,441	-13,8
262,815	-13,17
263,189	-12,69
263,562	-12,56
263,936	-13,38
264,309	-13,98
264,683	-15,3
265,056	-16,04
265,43	-15,93
265,803	-15,44
266,176	-14,37
266,55	-13,49
266,923	-12,71
267,296	-12,02
267,67	-11,82
268,043	-12,3
268,416	-11,92
268,789	-10,7
269,162	-9,68
269,535	-9,22
269,908	-8,51
270,281	-8,62
270,654	-8,52
271,027	-8,63
271,4	-9,16
271,773	-9,32
272,146	-9,73
272,519	-9,65
272,891	-9,55
273,264	-10,22
273,637	-10,43
274,01	-10,82
274,382	-11,41
274,755	-11,92
275,127	-12,14
275,5	-11,75
275,872	-11,11
276,245	-10,49
276,617	-10,52
276,99	-11,11
277,362	-11,77
277,734	-11,79
278,107	-11,55
278,479	-10,82
278,851	-10,18
279,223	-9,46
279,596	-8,96
279,968	-8,45
280,34	-8,41
280,712	-8,7
281,084	-8,47
281,456	-8,28
281,828	-7,96
282,2	-7,52
282,572	-6,96
282,944	-6,33
283,315	-6,09
283,687	-5,72
284,059	-5,61
284,431	-5,4
284,802	-4,95
285,174	-4,58
285,546	-4,5
285,917	-4,34
286,289	-4,5
286,66	-4,51
287,032	-4
287,403	-3,86
287,775	-3,65
288,146	-3,29
288,518	-2,79
288,889	-2,46
289,26	-2,05
289,632	-1,72
290,003	-1,85
290,374	-2,1
290,745	-2,56
291,116	-2,3
291,487	-2,03
291,858	-1,74
292,229	-1,65
292,6	-1,26
292,971	-0,78
293,342	-0,22
293,713	0,26
294,084	0,54
294,455	0,78
294,826	0,68
295,196	1,06
295,567	1,32
295,938	1,39
296,308	1,32
296,679	1,51
297,05	1,59
297,42	1,75
297,791	2,42
298,161	2,72
298,532	3,13
298,902	3,14
299,272	3,25
299,643	3,57
300,013	3,79
300,383	3,73
300,754	3,82
301,124	3,79
301,494	4,11
301,864	4,62
302,234	4,9
302,604	5,12
302,974	5,05
303,344	5,15
303,714	5,38
304,084	5,62
304,454	6,18
304,824	6,44
305,194	6,73
305,563	6,86
305,933	7,23
306,303	7,57
306,673	7,89
307,042	7,99
307,412	7,91
307,781	8,2
308,151	8,62
308,521	8,92
308,89	9,22
309,259	9,34
309,629	9,43
309,998	9,61
310,368	9,79
310,737	10,02
311,106	10,09
311,475	10,26
311,845	10,39
312,214	10,33
312,583	10,45
312,952	10,45
313,321	10,53
313,69	10,71
314,059	10,94
314,428	11,35
314,797	11,72
315,166	11,93
315,535	11,96
315,904	11,91
316,272	11,81
316,641	11,89
317,01	11,89
317,379	11,86
317,747	11,9
318,116	12,04
318,484	12,01
318,853	12,2
319,221	12,44
319,59	12,74
319,958	12,76
320,327	12,77
320,695	12,88
321,063	13,15
321,432	13,29
321,8	13,35
322,168	13,33
322,536	13,34
322,905	13,43
323,273	13,6
323,641	13,83
324,009	14,17
324,377	14,4
324,745	14,57
325,113	14,81
325,481	14,97
325,849	14,99
326,216	15,18
326,584	15,27
326,952	15,26
327,32	15,31
327,687	15,57
328,055	15,62
328,423	15,8
328,79	15,92
329,158	15,91
329,525	15,89
329,893	15,86
330,26	16,08
330,628	16,25
330,995	16,42
331,362	16,69
331,73	16,8
332,097	16,8
332,464	16,84
332,831	16,88
333,199	17,17
333,566	17,45
333,933	17,51
334,3	17,49
334,667	17,59
335,034	17,54
335,401	17,55
335,768	17,81
336,135	17,76
336,502	17,72
336,868	17,85
337,235	18,01
337,602	18,25
337,969	18,19
338,335	18,33
338,702	18,25
339,069	18,14
339,435	18,12
339,802	18,21
340,168	18,32
340,535	18,28
340,901	18,25
341,267	18,11
341,634	18,18
342	18,4
342,366	18,49
342,733	18,6
343,099	18,76
343,465	18,8
343,831	18,99
344,197	19,2
344,563	19,37
344,929	19,43
345,295	19,47
345,661	19,62
346,027	19,62
346,393	19,86
346,759	20,06
347,125	20,14
347,491	20,3
347,856	20,47
348,222	20,71
348,588	20,88
348,953	21,04
349,319	21,23
349,684	21,28
350,05	21,35
350,415	21,52
350,781	21,62
351,146	21,74
351,512	21,74
351,877	21,61
352,242	21,57
352,608	21,68
352,973	21,72
353,338	21,76
353,703	21,89
354,068	21,87
354,433	21,84
354,798	21,92
355,164	21,9
355,528	21,93
355,893	21,9
356,258	21,88
356,623	21,91
356,988	21,95
357,353	21,94
357,718	21,96
358,082	21,94
358,447	21,92
358,812	21,94
359,176	22,03
359,541	22,2
359,905	22,23
360,27	22,23
360,634	22,32
360,999	22,38
361,363	22,36
361,728	22,49
362,092	22,65
362,456	22,71
362,821	22,71
363,185	22,75
363,549	22,84
363,913	22,89
364,277	23,03
364,641	23,13
365,005	23,26
365,369	23,37
365,733	23,42
366,097	23,45
366,461	23,53
366,825	23,58
367,189	23,59
367,553	23,62
367,916	23,75
368,28	23,71
368,644	23,76
369,007	23,92
369,371	23,95
369,734	23,97
370,098	24,11
370,461	24,25
370,825	24,28
371,188	24,32
371,552	24,44
371,915	24,42
372,278	24,49
372,642	24,56
373,005	24,56
373,368	24,63
373,731	24,74
374,094	24,77
374,457	24,83
374,82	24,87
375,183	24,99
375,546	24,97
375,909	25,11
376,272	25,18
376,635	25,22
376,998	25,26
377,361	25,32
377,723	25,29
378,086	25,29
378,449	25,32
378,811	25,38
379,174	25,38
379,537	25,42
379,899	25,42
380,262	25,4
380,624	25,44
380,987	25,48
381,349	25,54
381,711	25,58
382,074	25,61
382,436	25,64
382,798	25,88
383,16	25,94
383,522	25,94
383,884	25,96
384,247	25,94
384,609	26,03
384,971	26,05
385,333	26,08
385,695	26,15
386,056	26,15
386,418	26,12
386,78	26,2
387,142	26,19
387,504	26,18
387,865	26,19
388,227	26,26
388,589	26,33
388,95	26,34
389,312	26,38
389,673	26,47
390,035	26,47
390,396	26,28
390,758	26,29
391,119	26,3
391,48	26,35
391,842	26,35
392,203	26,33
392,564	26,36
392,925	26,38
393,286	26,35
393,648	26,36
394,009	26,4
394,37	26,42
394,731	26,5
395,092	26,58
395,452	26,65
395,813	26,64
396,174	26,66
396,535	26,68
396,896	26,73
397,257	26,65
397,617	26,72
397,978	26,83
398,338	26,87
398,699	26,95
399,06	26,97
399,42	27
399,781	27,05
400,141	27,04
400,501	27,08
400,862	27,09
401,222	27,14
401,582	27,19
401,943	27,15
402,303	27,14
402,663	27,1
403,023	27,07
403,383	27,09
403,743	27,08
404,103	27,04
404,463	27,03
404,823	27,1
405,183	27,07
405,543	27,06
405,903	27,1
406,262	27,03
406,622	27,03
406,982	27,04
407,342	27,03
407,701	27,05
408,061	27,08
408,42	27,12
408,78	27,09
409,139	27,06
409,499	27,06
409,858	27,09
410,217	27,1
410,577	27,09
410,936	27,13
411,295	27,14
411,655	27,15
412,014	27,13
412,373	27,16
412,732	27,15
413,091	27,12
413,45	27,09
413,809	27,07
414,168	27,05
414,527	26,99
414,886	26,98
415,245	26,93
415,603	26,9
415,962	26,88
416,321	26,91
416,679	26,88
417,038	26,87
417,397	26,81
417,755	26,78
418,114	26,78
418,472	26,73
418,831	26,72
419,189	26,72
419,547	26,69
419,906	26,66
420,264	26,65
420,622	26,6
420,981	26,59
421,339	26,58
421,697	26,59
422,055	26,62
422,413	26,62
422,771	26,61
423,129	26,61
423,487	26,62
423,845	26,63
424,203	26,66
424,56	26,68
424,918	26,72
425,276	26,77
425,634	26,79
425,991	26,85
426,349	26,89
426,707	26,9
427,064	26,94
427,422	26,98
427,779	27,05
428,137	27,12
428,494	27,17
428,851	27,22
429,209	27,2
429,566	27,2
429,923	27,24
430,28	27,29
430,637	27,31
430,995	27,32
431,352	27,3
431,709	27,27
432,066	27,27
432,423	27,27
432,78	27,24
433,137	27,27
433,493	27,24
433,85	27,23
434,207	27,21
434,564	27,24
434,92	27,22
435,277	27,2
435,634	27,19
435,99	27,18
436,347	27,14
436,703	27,15
437,06	27,17
437,416	27,16
437,773	27,15
438,129	27,13
438,485	27,13
438,841	27,15
439,198	27,16
439,554	27,18
439,91	27,2
440,266	27,19
440,622	27,18
440,978	27,2
441,334	27,17
441,69	27,14
442,046	27,14
442,402	27,12
442,758	27,09
443,113	27,08
443,469	27,07
443,825	27,09
444,181	27,09
444,536	27,08
444,892	27,08
445,247	27,09
445,603	27,11
445,958	27,12
446,314	27,11
446,669	27,11
447,025	27,09
447,38	27,08
447,735	27,08
448,09	27,1
448,446	27,11
448,801	27,12
449,156	27,16
449,511	27,16
449,866	27,19
450,221	27,25
450,576	27,29
450,931	27,34
451,286	27,39
451,641	27,44
451,995	27,47
452,35	27,49
452,705	27,49
453,06	27,49
453,414	27,49
453,769	27,48
454,123	27,52
454,478	27,54
454,832	27,55
455,187	27,54
455,541	27,52
455,896	27,5
456,25	27,51
456,604	27,48
456,958	27,46
457,313	27,45
457,667	27,45
458,021	27,46
458,375	27,45
458,729	27,46
459,083	27,44
459,437	27,45
459,791	27,46
460,145	27,49
460,499	27,49
460,852	27,48
461,206	27,51
461,56	27,51
461,914	27,51
462,267	27,52
462,621	27,53
462,974	27,54
463,328	27,56
463,681	27,59
464,035	27,6
464,388	27,62
464,742	27,61
465,095	27,63
465,448	27,63
465,801	27,61
466,155	27,62
466,508	27,62
466,861	27,6
467,214	27,6
467,567	27,59
467,92	27,58
468,273	27,59
468,626	27,58
468,979	27,58
469,332	27,56
469,684	27,55
470,037	27,58
470,39	27,57
470,743	27,57
471,095	27,59
471,448	27,65
471,8	27,69
472,153	27,75
472,505	27,75
472,858	27,74
473,21	27,76
473,562	27,77
473,915	27,77
474,267	27,78
474,619	27,76
474,971	27,77
475,324	27,78
475,676	27,77
476,028	27,79
476,38	27,8
476,732	27,82
477,084	27,84
477,436	27,83
477,787	27,83
478,139	27,81
478,491	27,8
478,843	27,74
479,195	27,72
479,546	27,66
479,898	27,6
480,249	27,61
480,601	27,65
480,952	27,66
481,304	27,65
481,655	27,62
482,007	27,6
482,358	27,59
482,709	27,59
483,061	27,58
483,412	27,57
483,763	27,55
484,114	27,53
484,465	27,5
484,816	27,49
485,167	27,48
485,518	27,48
485,869	27,48
486,22	27,49
486,571	27,5
486,922	27,51
487,272	27,52
487,623	27,5
487,974	27,47
488,324	27,43
488,675	27,41
489,025	27,41
489,376	27,44
489,726	27,43
490,077	27,44
490,427	27,46
490,778	27,47
491,128	27,49
491,478	27,5
491,828	27,56
492,179	27,57
492,529	27,6
492,879	27,61
493,229	27,62
493,579	27,61
493,929	27,6
494,279	27,59
494,629	27,6
494,979	27,63
495,328	27,66
495,678	27,68
496,028	27,73
496,378	27,77
496,727	27,77
497,077	27,81
497,426	27,82
497,776	27,81
498,125	27,8
498,475	27,79
498,824	27,81
499,174	27,79
499,523	27,8
499,872	27,79
500,221	27,81
500,571	27,82
500,92	27,84
501,269	27,85
501,618	27,86
501,967	27,85
502,316	27,87
502,665	27,86
503,014	27,9
503,363	27,91
503,711	27,9
504,06	27,9
504,409	27,88
504,758	27,88
505,106	27,88
505,455	27,9
505,803	27,89
506,152	27,88
506,5	27,87
506,849	27,87
507,197	27,86
507,546	27,87
507,894	27,85
508,242	27,86
508,59	27,84
508,939	27,86
509,287	27,89
509,635	27,86
509,983	27,85
510,331	27,85
510,679	27,87
511,027	27,89
511,375	27,91
511,723	27,93
512,07	27,92
512,418	27,92
512,766	27,92
513,114	27,95
513,461	27,97
513,809	27,97
514,156	28,01
514,504	28,04
514,851	28,03
515,199	28,03
515,546	28,02
515,893	28,05
516,241	28,05
516,588	28,06
516,935	28,08
517,282	28,1
517,63	28,1
517,977	28,11
518,324	28,11
518,671	28,1
519,018	28,11
519,365	28,11
519,711	28,14
520,058	28,14
520,405	28,13
520,752	28,13
521,099	28,12
521,445	28,09
521,792	28,07
522,138	28,04
522,485	28,01
522,832	28,02
523,178	27,99
523,524	28,01
523,871	28,01
524,217	28,01
524,563	27,98
524,91	27,94
525,256	27,93
525,602	27,9
525,948	27,89
526,294	27,87
526,64	27,85
526,986	27,81
527,332	27,8
527,678	27,8
528,024	27,78
528,37	27,8
528,716	27,81
529,061	27,81
529,407	27,83
529,753	27,85
530,098	27,84
530,444	27,84
530,789	27,82
531,135	27,82
531,48	27,82
531,826	27,83
532,171	27,84
532,516	27,84
532,862	27,86
533,207	27,86
533,552	27,86
533,897	27,88
534,242	27,91
534,587	27,94
534,932	27,95
535,277	27,97
535,622	27,97
535,967	27,99
536,312	28,01
536,657	28,02
537,001	28,05
537,346	28,06
537,691	28,07
538,035	28,05
538,38	28,03
538,724	27,99
539,069	28,01
539,413	28,01
539,758	27,98
540,102	27,98
540,446	27,98
540,791	28
541,135	27,99
541,479	28
541,823	27,98
542,167	27,97
542,512	27,98
542,856	27,96
543,2	27,93
543,543	27,92
543,887	27,92
544,231	27,92
544,575	27,93
544,919	27,95
545,262	27,97
545,606	27,98
545,95	28,02
546,293	28,03
546,637	28,04
546,98	28,07
547,324	28,07
547,667	28,07
548,011	28,07
548,354	28,11
548,697	28,11
549,04	28,16
549,384	28,14
549,727	28,12
550,07	28,13
550,413	28,16
550,756	28,17
551,099	28,16
551,442	28,13
551,785	28,14
552,128	28,11
552,47	28,11
552,813	28,1
553,156	28,11
553,499	28,09
553,841	28,09
554,184	28,07
554,526	28,07
554,869	28,06
555,211	28,06
555,554	28,04
555,896	28,02
556,238	27,99
556,581	27,98
556,923	27,97
557,265	27,96
557,607	27,94
557,949	27,94
558,291	27,93
558,633	27,92
558,975	27,87
559,317	27,85
559,659	27,85
560,001	27,83
560,343	27,81
560,685	27,77
561,026	27,73
561,368	27,72
561,71	27,69
562,051	27,69
562,393	27,69
562,734	27,66
563,076	27,64
563,417	27,6
563,759	27,61
564,1	27,6
564,441	27,58
564,782	27,57
565,124	27,53
565,465	27,51
565,806	27,52
566,147	27,53
566,488	27,53
566,829	27,5
567,17	27,48
567,511	27,49
567,851	27,52
568,192	27,51
568,533	27,49
568,874	27,48
569,214	27,48
569,555	27,44
569,895	27,47
570,236	27,44
570,576	27,44
570,917	27,41
571,257	27,41
571,598	27,42
571,938	27,4
572,278	27,39
572,618	27,39
572,959	27,38
573,299	27,37
573,639	27,35
573,979	27,36
574,319	27,36
574,659	27,33
574,999	27,3
575,339	27,28
575,678	27,27
576,018	27,22
576,358	27,19
576,698	27,18
577,037	27,12
577,377	27,13
577,716	27,12
578,056	27,09
578,395	27,08
578,735	27,05
579,074	27,08
579,413	27,07
579,753	27,07
580,092	27,03
580,431	27,01
580,77	27,05
581,109	27,04
581,448	27,04
581,787	26,99
582,126	26,99
582,465	27
582,804	27
583,143	27,08
583,482	27,07
583,82	27,1
584,159	27,1
584,498	27,12
584,836	27,09
585,175	27,14
585,514	27,17
585,852	27,2
586,19	27,18
586,529	27,19
586,867	27,22
587,205	27,26
587,544	27,26
587,882	27,22
588,22	27,2
588,558	27,22
588,896	27,27
589,234	27,26
589,572	27,28
589,91	27,27
590,248	27,27
590,586	27,28
590,924	27,26
591,262	27,3
591,599	27,29
591,937	27,3
592,275	27,28
592,612	27,23
592,95	27,23
593,287	27,25
593,625	27,26
593,962	27,26
594,299	27,26
594,637	27,27
594,974	27,28
595,311	27,3
595,648	27,3
595,985	27,3
596,322	27,29
596,659	27,3
596,996	27,29
597,333	27,26
597,67	27,25
598,007	27,23
598,344	27,21
598,681	27,25
599,017	27,25
599,354	27,21
599,691	27,24
600,027	27,25
600,364	27,23
600,7	27,23
601,037	27,21
601,373	27,2
601,71	27,24
602,046	27,3
602,382	27,3
602,718	27,29
603,054	27,28
603,391	27,29
603,727	27,3
604,063	27,31
604,399	27,32
604,735	27,34
605,071	27,37
605,406	27,41
605,742	27,4
606,078	27,4
606,414	27,46
606,749	27,45
607,085	27,41
607,421	27,42
607,756	27,41
608,092	27,43
608,427	27,42
608,762	27,37
609,098	27,34
609,433	27,3
609,768	27,28
610,104	27,28
610,439	27,29
610,774	27,24
611,109	27,26
611,444	27,26
611,779	27,29
612,114	27,23
612,449	27,19
612,784	27,17
613,118	27,13
613,453	27,09
613,788	27,07
614,123	27,05
614,457	27
614,792	26,99
615,126	26,96
615,461	26,92
615,795	26,88
616,13	26,87
616,464	26,89
616,798	26,91
617,132	26,91
617,467	26,91
617,801	26,89
618,135	26,89
618,469	26,85
618,803	26,84
619,137	26,85
619,471	26,85
619,805	26,86
620,139	26,89
620,472	26,9
620,806	26,93
621,14	26,92
621,473	26,95
621,807	26,9
622,141	26,91
622,474	26,96
622,808	27,02
623,141	27,02
623,474	27,05
623,808	27,05
624,141	27,07
624,474	27,09
624,807	27,09
625,141	27,06
625,474	27,07
625,807	27,06
626,14	27,1
626,473	27,1
626,806	27,09
627,138	27,08
627,471	27,09
627,804	27,09
628,137	27,13
628,469	27,09
628,802	27,14
629,135	27,12
629,467	27,2
629,8	27,14
630,132	27,12
630,465	27,15
630,797	27,17
631,129	27,19
631,461	27,15
631,794	27,21
632,126	27,23
632,458	27,22
632,79	27,18
633,122	27,18
633,454	27,18
633,786	27,19
634,118	27,19
634,45	27,19
634,781	27,14
635,113	27,14
635,445	27,19
635,777	27,17
636,108	27,16
636,44	27,06
636,771	27,13
637,103	27,15
637,434	27,13
637,765	27,06
638,097	27,08
638,428	27,03
638,759	26,98
639,09	26,98
639,422	27,01
639,753	27,01
640,084	26,95
640,415	26,93
640,746	26,88
641,077	26,87
641,407	26,81
641,738	26,81
642,069	26,78
642,4	26,73
642,73	26,78
643,061	26,82
643,392	26,82
643,722	26,78
644,053	26,79
644,383	26,76
644,713	26,78
645,044	26,72
645,374	26,76
645,704	26,8
646,034	26,8
646,365	26,87
646,695	26,92
