Data from zc_m2_p1_Reflection_3,txt Node
Date: Wed Nov 25 16:43:33 GMT-03:00 2020
User: Darío
Spectrometer: USB2E3644
Trigger mode: 4
Integration Time (sec): 9,000000E-2
Scans to average: 10
Electric dark correction enabled: true
Nonlinearity correction enabled: false
Boxcar width: 10
XAxis mode: Wavelengths
Number of Pixels in Spectrum: 2048
>>>>>Begin Spectral Data<<<<<
178,315	174,92
178,696	165,79
179,076	179,46
179,457	126,69
179,838	92,48
180,218	81,52
180,599	138,34
180,979	390,91
181,36	-69,46
181,74	-273,53
182,121	452,24
182,501	186,9
182,881	190,12
183,262	178,14
183,642	174,96
184,022	160,67
184,402	155,49
184,783	153,81
185,163	137,33
185,543	132,32
185,923	134,55
186,303	133,21
186,683	130,65
187,063	128,46
187,443	125,01
187,823	123,35
188,203	122,1
188,583	120,74
188,963	120,67
189,343	118,25
189,723	119,24
190,102	119,45
190,482	119,08
190,862	119,42
191,242	120,29
191,621	122,59
192,001	124,32
192,38	123,78
192,76	123,87
193,14	124,9
193,519	122,89
193,898	119,99
194,278	118,79
194,657	118,86
195,037	117,92
195,416	116,13
195,795	114,37
196,175	113
196,554	114,55
196,933	114,05
197,312	112,55
197,692	110,31
198,071	107,73
198,45	105,63
198,829	105,19
199,208	105,91
199,587	104,79
199,966	104,06
200,345	105,42
200,724	105,29
201,103	103,59
201,482	102,44
201,86	103,43
202,239	105,34
202,618	105,98
202,997	107,45
203,375	108,42
203,754	108,88
204,133	111,09
204,511	111,02
204,89	111,03
205,269	110,55
205,647	109,99
206,026	112,07
206,404	115,41
206,782	115,92
207,161	116,35
207,539	116,64
207,918	116,57
208,296	114,29
208,674	113,77
209,052	114,97
209,431	118,11
209,809	118,86
210,187	117,35
210,565	116,68
210,943	115,11
211,321	114,2
211,699	115,32
212,077	114,19
212,455	114,54
212,833	115,94
213,211	116,78
213,589	118,07
213,967	117,38
214,345	114,42
214,722	111,08
215,1	107,89
215,478	107,43
215,855	108,02
216,233	108,48
216,611	109,34
216,988	111,3
217,366	112,19
217,743	111,94
218,121	114,27
218,498	115,08
218,876	116,24
219,253	118,27
219,631	116,57
220,008	115,89
220,385	115,78
220,762	114,27
221,14	115,67
221,517	119,05
221,894	123,49
222,271	127,81
222,648	132,22
223,025	134,62
223,402	135,7
223,78	134,71
224,157	134,17
224,533	134,35
224,91	132,92
225,287	131,6
225,664	132,36
226,041	132,69
226,418	135,79
226,795	140,48
227,171	141,62
227,548	148,28
227,925	154,77
228,301	156,45
228,678	159,05
229,055	161,36
229,431	162,74
229,808	158,54
230,184	159,21
230,561	165,01
230,937	170
231,313	175,3
231,69	183,37
232,066	194,17
232,442	200,74
232,819	207,71
233,195	210,93
233,571	217,67
233,947	215,1
234,323	210,35
234,699	210,21
235,075	216,74
235,451	220,35
235,827	223,59
236,203	228,87
236,579	243,2
236,955	259,72
237,331	278,51
237,707	326,91
238,083	392,92
238,459	495,64
238,834	860,49
239,21	4270,43
239,586	-1563,67
239,961	-925,05
240,337	-752,99
240,713	-520,24
241,088	-383,24
241,464	-322,97
241,839	-269,53
242,215	-225,25
242,59	-182,79
242,965	-141,5
243,341	-104,45
243,716	-81,54
244,091	-68,87
244,467	-60,19
244,842	-53,93
245,217	-51,78
245,592	-50,1
245,967	-51,22
246,343	-51,54
246,718	-53,58
247,093	-55,2
247,468	-55,35
247,843	-54,46
248,218	-51,93
248,593	-49,47
248,967	-47,19
249,342	-45,78
249,717	-45,68
250,092	-45,97
250,467	-47,2
250,841	-50,13
251,216	-55,74
251,591	-60,86
251,965	-65,25
252,34	-70,67
252,714	-75,75
253,089	-76,8
253,463	-75,78
253,838	-72,23
254,212	-68,44
254,587	-64,28
254,961	-61,77
255,335	-59,17
255,71	-52,31
256,084	-43,64
256,458	-37,52
256,832	-32,92
257,206	-30,21
257,581	-27,92
257,955	-26,66
258,329	-25,66
258,703	-24,54
259,077	-23,46
259,451	-22,65
259,825	-22,11
260,199	-22,16
260,572	-22,59
260,946	-23,02
261,32	-23,35
261,694	-23,26
262,068	-23,11
262,441	-22,63
262,815	-21,36
263,189	-20,63
263,562	-20,34
263,936	-21,32
264,309	-22,45
264,683	-23,83
265,056	-24,52
265,43	-24,09
265,803	-23,7
266,176	-22,79
266,55	-22,04
266,923	-21,96
267,296	-21,73
267,67	-21,42
268,043	-20,78
268,416	-19,76
268,789	-18,24
269,162	-16,71
269,535	-15,32
269,908	-14,33
270,281	-13,74
270,654	-13,46
271,027	-13,44
271,4	-14,04
271,773	-14,12
272,146	-14,4
272,519	-14,79
272,891	-15,12
273,264	-16,03
273,637	-16
274,01	-15,91
274,382	-16,42
274,755	-16,46
275,127	-16,72
275,5	-16,39
275,872	-15,91
276,245	-15,41
276,617	-15,49
276,99	-16,39
277,362	-17,15
277,734	-17,29
278,107	-17,57
278,479	-17,03
278,851	-16,52
279,223	-15,8
279,596	-15,19
279,968	-14,76
280,34	-14,38
280,712	-14,46
281,084	-13,88
281,456	-13,59
281,828	-13,1
282,2	-12,33
282,572	-11,77
282,944	-11,07
283,315	-10,92
283,687	-10,66
284,059	-10,48
284,431	-10,03
284,802	-9,34
285,174	-8,82
285,546	-8,66
285,917	-8,63
286,289	-8,93
286,66	-9
287,032	-8,63
287,403	-8,53
287,775	-8,19
288,146	-8,14
288,518	-7,73
288,889	-7,46
289,26	-7,32
289,632	-7,36
290,003	-7,49
290,374	-7,82
290,745	-8,28
291,116	-8,15
291,487	-8,11
291,858	-8,23
292,229	-8,49
292,6	-8,33
292,971	-8,26
293,342	-7,86
293,713	-7,13
294,084	-6,87
294,455	-6,63
294,826	-6,96
295,196	-6,99
295,567	-6,91
295,938	-6,59
296,308	-6,44
296,679	-6,21
297,05	-5,97
297,42	-5,91
297,791	-5,52
298,161	-5,11
298,532	-4,85
298,902	-4,81
299,272	-4,59
299,643	-4,2
300,013	-3,95
300,383	-3,98
300,754	-4,02
301,124	-4,37
301,494	-4,69
301,864	-4,59
302,234	-4,51
302,604	-4,08
302,974	-4,01
303,344	-4,05
303,714	-3,93
304,084	-3,8
304,454	-3,63
304,824	-3,51
305,194	-3,45
305,563	-3,53
305,933	-3,22
306,303	-2,72
306,673	-2,36
307,042	-2,34
307,412	-2,59
307,781	-2,35
308,151	-2,16
308,521	-1,94
308,89	-1,76
309,259	-1,46
309,629	-1,32
309,998	-1,28
310,368	-1,34
310,737	-1,13
311,106	-1,07
311,475	-1,14
311,845	-0,97
312,214	-1,05
312,583	-1,21
312,952	-1,15
313,321	-1,2
313,69	-1,43
314,059	-1,72
314,428	-1,86
314,797	-1,89
315,166	-1,89
315,535	-2,15
315,904	-2,36
316,272	-2,65
316,641	-2,54
317,01	-2,55
317,379	-2,57
317,747	-2,61
318,116	-2,49
318,484	-2,6
318,853	-2,65
319,221	-2,61
319,59	-2,68
319,958	-2,69
320,327	-2,44
320,695	-2,34
321,063	-2,07
321,432	-1,85
321,8	-1,61
322,168	-1,58
322,536	-1,45
322,905	-1,39
323,273	-1,32
323,641	-1,3
324,009	-1,08
324,377	-0,99
324,745	-0,93
325,113	-0,78
325,481	-0,63
325,849	-0,72
326,216	-0,57
326,584	-0,35
326,952	-0,31
327,32	-0,3
327,687	-0,19
328,055	-0,13
328,423	-0,05
328,79	-0,04
329,158	-0,11
329,525	-0,17
329,893	-0,17
330,26	-0,24
330,628	-0,11
330,995	0,03
331,362	0,16
331,73	0,24
332,097	0,26
332,464	0,18
332,831	0,13
333,199	0,23
333,566	0,44
333,933	0,56
334,3	0,52
334,667	0,66
335,034	0,66
335,401	0,68
335,768	0,65
336,135	0,74
336,502	0,76
336,868	0,93
337,235	1,15
337,602	1,46
337,969	1,68
338,335	1,83
338,702	1,89
339,069	1,91
339,435	1,96
339,802	1,96
340,168	2,02
340,535	2,06
340,901	2,15
341,267	2,14
341,634	2,13
342	2,14
342,366	2,14
342,733	2,16
343,099	2,22
343,465	2,26
343,831	2,29
344,197	2,43
344,563	2,51
344,929	2,46
345,295	2,43
345,661	2,44
346,027	2,49
346,393	2,56
346,759	2,65
347,125	2,72
347,491	2,86
347,856	2,96
348,222	3,05
348,588	3,11
348,953	3,14
349,319	3,16
349,684	3,27
350,05	3,3
350,415	3,43
350,781	3,48
351,146	3,59
351,512	3,68
351,877	3,66
352,242	3,65
352,608	3,73
352,973	3,74
353,338	3,75
353,703	3,73
354,068	3,7
354,433	3,74
354,798	3,75
355,164	3,73
355,528	3,78
355,893	3,81
356,258	3,78
356,623	3,82
356,988	3,79
357,353	3,74
357,718	3,78
358,082	3,82
358,447	3,86
358,812	3,87
359,176	3,96
359,541	4,06
359,905	4,16
360,27	4,12
360,634	4,14
360,999	4,16
361,363	4,27
361,728	4,37
362,092	4,47
362,456	4,55
362,821	4,55
363,185	4,56
363,549	4,59
363,913	4,69
364,277	4,77
364,641	4,86
365,005	5
365,369	4,99
365,733	5,06
366,097	5,17
366,461	5,24
366,825	5,22
367,189	5,21
367,553	5,27
367,916	5,39
368,28	5,47
368,644	5,6
369,007	5,65
369,371	5,65
369,734	5,69
370,098	5,75
370,461	5,87
370,825	5,97
371,188	6,04
371,552	6,15
371,915	6,24
372,278	6,35
372,642	6,43
373,005	6,49
373,368	6,51
373,731	6,53
374,094	6,58
374,457	6,64
374,82	6,7
375,183	6,77
375,546	6,8
375,909	6,84
376,272	6,9
376,635	6,93
376,998	7,02
377,361	7,06
377,723	7,12
378,086	7,14
378,449	7,18
378,811	7,23
379,174	7,2
379,537	7,24
379,899	7,29
380,262	7,28
380,624	7,38
380,987	7,41
381,349	7,44
381,711	7,47
382,074	7,5
382,436	7,53
382,798	7,61
383,16	7,66
383,522	7,66
383,884	7,68
384,247	7,74
384,609	7,81
384,971	7,92
385,333	7,9
385,695	7,93
386,056	7,9
386,418	7,92
386,78	7,97
387,142	7,94
387,504	7,91
387,865	7,94
388,227	7,94
388,589	7,97
388,95	8,01
389,312	8,04
389,673	8,05
390,035	8,04
390,396	7,99
390,758	8
391,119	8,01
391,48	8,01
391,842	7,99
392,203	7,94
392,564	7,89
392,925	7,92
393,286	7,92
393,648	7,93
394,009	7,93
394,37	7,94
394,731	8,02
395,092	8,05
395,452	8,03
395,813	8,03
396,174	8,04
396,535	8,07
396,896	8,07
397,257	8,09
397,617	8,15
397,978	8,18
398,338	8,16
398,699	8,22
399,06	8,29
399,42	8,3
399,781	8,32
400,141	8,32
400,501	8,3
400,862	8,33
401,222	8,35
401,582	8,34
401,943	8,28
402,303	8,24
402,663	8,24
403,023	8,27
403,383	8,3
403,743	8,31
404,103	8,29
404,463	8,29
404,823	8,35
405,183	8,33
405,543	8,35
405,903	8,4
406,262	8,34
406,622	8,25
406,982	8,25
407,342	8,31
407,701	8,37
408,061	8,4
408,42	8,4
408,78	8,4
409,139	8,44
409,499	8,44
409,858	8,42
410,217	8,41
410,577	8,41
410,936	8,38
411,295	8,38
411,655	8,36
412,014	8,34
412,373	8,29
412,732	8,25
413,091	8,23
413,45	8,18
413,809	8,17
414,168	8,13
414,527	8,09
414,886	8,01
415,245	7,96
415,603	7,91
415,962	7,89
416,321	7,87
416,679	7,8
417,038	7,79
417,397	7,75
417,755	7,73
418,114	7,69
418,472	7,67
418,831	7,65
419,189	7,64
419,547	7,63
419,906	7,6
420,264	7,6
420,622	7,59
420,981	7,57
421,339	7,56
421,697	7,58
422,055	7,59
422,413	7,61
422,771	7,62
423,129	7,64
423,487	7,65
423,845	7,68
424,203	7,72
424,56	7,74
424,918	7,79
425,276	7,83
425,634	7,89
425,991	7,92
426,349	7,95
426,707	7,99
427,064	8,04
427,422	8,08
427,779	8,13
428,137	8,16
428,494	8,23
428,851	8,26
429,209	8,27
429,566	8,28
429,923	8,28
430,28	8,29
430,637	8,29
430,995	8,29
431,352	8,26
431,709	8,28
432,066	8,28
432,423	8,25
432,78	8,24
433,137	8,23
433,493	8,21
433,85	8,25
434,207	8,22
434,564	8,21
434,92	8,2
435,277	8,18
435,634	8,18
435,99	8,17
436,347	8,15
436,703	8,15
437,06	8,14
437,416	8,15
437,773	8,14
438,129	8,12
438,485	8,12
438,841	8,12
439,198	8,12
439,554	8,13
439,91	8,14
440,266	8,13
440,622	8,14
440,978	8,15
441,334	8,13
441,69	8,12
442,046	8,11
442,402	8,1
442,758	8,09
443,113	8,07
443,469	8,06
443,825	8,06
444,181	8,06
444,536	8,06
444,892	8,06
445,247	8,07
445,603	8,09
445,958	8,09
446,314	8,11
446,669	8,1
447,025	8,1
447,38	8,12
447,735	8,13
448,09	8,13
448,446	8,13
448,801	8,12
449,156	8,14
449,511	8,16
449,866	8,2
450,221	8,24
450,576	8,29
450,931	8,32
451,286	8,36
451,641	8,41
451,995	8,43
452,35	8,46
452,705	8,46
453,06	8,45
453,414	8,46
453,769	8,46
454,123	8,49
454,478	8,5
454,832	8,5
455,187	8,48
455,541	8,49
455,896	8,48
456,25	8,48
456,604	8,47
456,958	8,45
457,313	8,43
457,667	8,41
458,021	8,4
458,375	8,4
458,729	8,4
459,083	8,4
459,437	8,41
459,791	8,39
460,145	8,41
460,499	8,42
460,852	8,42
461,206	8,44
461,56	8,43
461,914	8,43
462,267	8,41
462,621	8,42
462,974	8,43
463,328	8,44
463,681	8,46
464,035	8,48
464,388	8,51
464,742	8,53
465,095	8,54
465,448	8,59
465,801	8,59
466,155	8,59
466,508	8,61
466,861	8,61
467,214	8,63
467,567	8,62
467,92	8,64
468,273	8,64
468,626	8,62
468,979	8,63
469,332	8,62
469,684	8,62
470,037	8,61
470,39	8,62
470,743	8,63
471,095	8,63
471,448	8,65
471,8	8,65
472,153	8,68
472,505	8,69
472,858	8,69
473,21	8,72
473,562	8,73
473,915	8,71
474,267	8,72
474,619	8,71
474,971	8,71
475,324	8,7
475,676	8,71
476,028	8,69
476,38	8,69
476,732	8,7
477,084	8,71
477,436	8,73
477,787	8,72
478,139	8,73
478,491	8,73
478,843	8,7
479,195	8,7
479,546	8,65
479,898	8,6
480,249	8,53
480,601	8,48
480,952	8,45
481,304	8,43
481,655	8,41
482,007	8,4
482,358	8,41
482,709	8,41
483,061	8,4
483,412	8,38
483,763	8,38
484,114	8,36
484,465	8,34
484,816	8,34
485,167	8,34
485,518	8,33
485,869	8,33
486,22	8,33
486,571	8,33
486,922	8,33
487,272	8,35
487,623	8,37
487,974	8,38
488,324	8,39
488,675	8,4
489,025	8,41
489,376	8,41
489,726	8,41
490,077	8,41
490,427	8,42
490,778	8,44
491,128	8,46
491,478	8,49
491,828	8,53
492,179	8,56
492,529	8,59
492,879	8,6
493,229	8,62
493,579	8,63
493,929	8,63
494,279	8,64
494,629	8,64
494,979	8,65
495,328	8,66
495,678	8,68
496,028	8,72
496,378	8,75
496,727	8,78
497,077	8,8
497,426	8,83
497,776	8,82
498,125	8,83
498,475	8,81
498,824	8,81
499,174	8,82
499,523	8,82
499,872	8,83
500,221	8,86
500,571	8,85
500,92	8,86
501,269	8,89
501,618	8,88
501,967	8,9
502,316	8,92
502,665	8,93
503,014	8,94
503,363	8,94
503,711	8,96
504,06	8,95
504,409	8,95
504,758	8,93
505,106	8,94
505,455	8,94
505,803	8,94
506,152	8,93
506,5	8,9
506,849	8,89
507,197	8,88
507,546	8,88
507,894	8,89
508,242	8,89
508,59	8,89
508,939	8,91
509,287	8,9
509,635	8,88
509,983	8,89
510,331	8,91
510,679	8,92
511,027	8,92
511,375	8,94
511,723	8,97
512,07	8,99
512,418	9
512,766	9,02
513,114	9,05
513,461	9,07
513,809	9,09
514,156	9,09
514,504	9,08
514,851	9,06
515,199	9,06
515,546	9,04
515,893	9,03
516,241	9,04
516,588	9,04
516,935	9,05
517,282	9,05
517,63	9,05
517,977	9,05
518,324	9,05
518,671	9,04
519,018	9,04
519,365	9,05
519,711	9,06
520,058	9,06
520,405	9,07
520,752	9,07
521,099	9,08
521,445	9,09
521,792	9,11
522,138	9,11
522,485	9,1
522,832	9,13
523,178	9,12
523,524	9,11
523,871	9,12
524,217	9,12
524,563	9,1
524,91	9,07
525,256	9,04
525,602	9,02
525,948	9,03
526,294	8,99
526,64	8,96
526,986	8,94
527,332	8,94
527,678	8,92
528,024	8,92
528,37	8,93
528,716	8,93
529,061	8,93
529,407	8,93
529,753	8,93
530,098	8,93
530,444	8,94
530,789	8,94
531,135	8,95
531,48	8,95
531,826	8,96
532,171	8,98
532,516	8,99
532,862	9,02
533,207	9,01
533,552	9,03
533,897	9,06
534,242	9,07
534,587	9,08
534,932	9,1
535,277	9,11
535,622	9,09
535,967	9,11
536,312	9,12
536,657	9,13
537,001	9,15
537,346	9,17
537,691	9,15
538,035	9,15
538,38	9,13
538,724	9,13
539,069	9,13
539,413	9,12
539,758	9,12
540,102	9,11
540,446	9,11
540,791	9,12
541,135	9,13
541,479	9,13
541,823	9,13
542,167	9,14
542,512	9,15
542,856	9,15
543,2	9,14
543,543	9,11
543,887	9,12
544,231	9,13
544,575	9,13
544,919	9,14
545,262	9,17
545,606	9,2
545,95	9,22
546,293	9,24
546,637	9,26
546,98	9,28
547,324	9,3
547,667	9,31
548,011	9,32
548,354	9,34
548,697	9,32
549,04	9,33
549,384	9,33
549,727	9,29
550,07	9,32
550,413	9,33
550,756	9,35
551,099	9,33
551,442	9,32
551,785	9,33
552,128	9,34
552,47	9,34
552,813	9,35
553,156	9,34
553,499	9,31
553,841	9,29
554,184	9,27
554,526	9,26
554,869	9,25
555,211	9,22
555,554	9,21
555,896	9,22
556,238	9,22
556,581	9,2
556,923	9,22
557,265	9,22
557,607	9,21
557,949	9,21
558,291	9,19
558,633	9,18
558,975	9,15
559,317	9,1
559,659	9,08
560,001	9,05
560,343	9,03
560,685	9,03
561,026	9,03
561,368	9,02
561,71	9,01
562,051	8,98
562,393	9,02
562,734	9
563,076	8,96
563,417	8,94
563,759	8,92
564,1	8,89
564,441	8,86
564,782	8,84
565,124	8,82
565,465	8,79
565,806	8,77
566,147	8,78
566,488	8,79
566,829	8,76
567,17	8,75
567,511	8,75
567,851	8,73
568,192	8,71
568,533	8,7
568,874	8,69
569,214	8,68
569,555	8,64
569,895	8,64
570,236	8,65
570,576	8,66
570,917	8,64
571,257	8,64
571,598	8,63
571,938	8,62
572,278	8,62
572,618	8,63
572,959	8,64
573,299	8,63
573,639	8,61
573,979	8,61
574,319	8,61
574,659	8,59
574,999	8,58
575,339	8,57
575,678	8,55
576,018	8,54
576,358	8,53
576,698	8,51
577,037	8,49
577,377	8,47
577,716	8,43
578,056	8,44
578,395	8,42
578,735	8,39
579,074	8,37
579,413	8,36
579,753	8,35
580,092	8,32
580,431	8,33
580,77	8,33
581,109	8,31
581,448	8,29
581,787	8,26
582,126	8,24
582,465	8,27
582,804	8,28
583,143	8,29
583,482	8,3
583,82	8,29
584,159	8,28
584,498	8,28
584,836	8,26
585,175	8,23
585,514	8,24
585,852	8,26
586,19	8,29
586,529	8,29
586,867	8,3
587,205	8,31
587,544	8,32
587,882	8,31
588,22	8,29
588,558	8,31
588,896	8,35
589,234	8,37
589,572	8,37
589,91	8,38
590,248	8,37
590,586	8,39
590,924	8,39
591,262	8,41
591,599	8,41
591,937	8,44
592,275	8,44
592,612	8,43
592,95	8,46
593,287	8,47
593,625	8,47
593,962	8,46
594,299	8,46
594,637	8,47
594,974	8,5
595,311	8,53
595,648	8,53
595,985	8,53
596,322	8,53
596,659	8,52
596,996	8,51
597,333	8,49
597,67	8,48
598,007	8,49
598,344	8,5
598,681	8,52
599,017	8,51
599,354	8,54
599,691	8,54
600,027	8,54
600,364	8,55
600,7	8,56
601,037	8,6
601,373	8,65
601,71	8,69
602,046	8,71
602,382	8,71
602,718	8,74
603,054	8,74
603,391	8,73
603,727	8,72
604,063	8,74
604,399	8,76
604,735	8,76
605,071	8,78
605,406	8,79
605,742	8,81
606,078	8,83
606,414	8,82
606,749	8,82
607,085	8,81
607,421	8,8
607,756	8,81
608,092	8,77
608,427	8,72
608,762	8,69
609,098	8,66
609,433	8,64
609,768	8,61
610,104	8,61
610,439	8,6
610,774	8,62
611,109	8,6
611,444	8,59
611,779	8,6
612,114	8,58
612,449	8,55
612,784	8,51
613,118	8,49
613,453	8,47
613,788	8,46
614,123	8,44
614,457	8,42
614,792	8,41
615,126	8,37
615,461	8,36
615,795	8,3
616,13	8,28
616,464	8,28
616,798	8,3
617,132	8,28
617,467	8,29
617,801	8,29
618,135	8,3
618,469	8,32
618,803	8,34
619,137	8,35
619,471	8,35
619,805	8,33
620,139	8,32
620,472	8,34
620,806	8,39
621,14	8,38
621,473	8,38
621,807	8,37
622,141	8,4
622,474	8,39
622,808	8,4
623,141	8,41
623,474	8,43
623,808	8,45
624,141	8,5
624,474	8,5
624,807	8,48
625,141	8,47
625,474	8,49
625,807	8,47
626,14	8,44
626,473	8,44
626,806	8,46
627,138	8,48
627,471	8,49
627,804	8,49
628,137	8,49
628,469	8,48
628,802	8,49
629,135	8,53
629,467	8,59
629,8	8,63
630,132	8,65
630,465	8,64
630,797	8,64
631,129	8,61
631,461	8,6
631,794	8,63
632,126	8,64
632,458	8,63
632,79	8,65
633,122	8,71
633,454	8,73
633,786	8,7
634,118	8,7
634,45	8,7
634,781	8,68
635,113	8,7
635,445	8,71
635,777	8,7
636,108	8,69
636,44	8,64
636,771	8,63
637,103	8,65
637,434	8,64
637,765	8,61
638,097	8,62
638,428	8,57
638,759	8,5
639,09	8,52
639,422	8,51
639,753	8,49
640,084	8,47
640,415	8,48
640,746	8,49
641,077	8,49
641,407	8,52
641,738	8,55
642,069	8,55
642,4	8,54
642,73	8,52
643,061	8,5
643,392	8,49
643,722	8,52
644,053	8,51
644,383	8,48
644,713	8,53
645,044	8,51
645,374	8,58
645,704	8,61
646,034	8,57
646,365	8,59
646,695	8,59
647,025	8,55
647,355	8,56
647,685	8,57
648,015	8,57
648,344	8,54
648,674	8,53
649,004	8,57
649,334	8,67
649,663	8,74
649,993	8,78
650,323	8,81
650,652	8,8
650,982	8,79
651,311	8,83
651,64	8,79
651,97	8,8
652,299	8,79
652,628	8,8
652,958	8,82
653,287	8,8
653,616	8,78
653,945	8,8
654,274	8,78
654,603	8,79
654,932	8,81
655,261	8,85
655,589	8,91
655,918	8,9
656,247	8,87
656,576	8,89
656,904	8,9
657,233	8,93
657,561	8,94
657,89	8,92
658,218	8,93
658,547	8,97
658,875	8,99
659,203	8,99
659,532	8,99
659,86	8,98
660,188	8,96
660,516	8,97
660,844	8,96
661,172	8,99
661,5	8,98
661,828	8,96
662,156	8,91
662,484	8,87
662,811	8,82
663,139	8,75
663,467	8,7
663,794	8,66
664,122	8,64
664,45	8,61
664,777	8,66
665,104	8,67
665,432	8,64
665,759	8,63
