Data from zc_m2_p5_Reflection_4,txt Node
Date: Wed Nov 25 16:50:28 GMT-03:00 2020
User: Darío
Spectrometer: USB2E3644
Trigger mode: 4
Integration Time (sec): 9,000000E-2
Scans to average: 10
Electric dark correction enabled: true
Nonlinearity correction enabled: false
Boxcar width: 10
XAxis mode: Wavelengths
Number of Pixels in Spectrum: 2048
>>>>>Begin Spectral Data<<<<<
178,315	158,96
178,696	105,26
179,076	78,1
179,457	49,4
179,838	15,04
180,218	38,59
180,599	60,1
180,979	336,36
181,36	-30,54
181,74	-263,24
182,121	432,84
182,501	192,33
182,881	185,54
183,262	175,63
183,642	188,37
184,022	197,58
184,402	195,75
184,783	181,73
185,163	162,83
185,543	161,04
185,923	155,21
186,303	151,15
186,683	143,46
187,063	138,49
187,443	138,3
187,823	139,75
188,203	139,22
188,583	138,79
188,963	138,38
189,343	133,77
189,723	132,01
190,102	133,52
190,482	133,24
190,862	133,61
191,242	134,11
191,621	134,68
192,001	132,84
192,38	130,47
192,76	130,28
193,14	129,06
193,519	126,47
193,898	124,11
194,278	122,09
194,657	121,72
195,037	120,29
195,416	116,85
195,795	113,64
196,175	111,23
196,554	111,17
196,933	112,45
197,312	111,33
197,692	109,34
198,071	105,55
198,45	103,42
198,829	103,09
199,208	102,61
199,587	101,3
199,966	100,9
200,345	102,27
200,724	102,55
201,103	101,46
201,482	100,5
201,86	101,57
202,239	104,04
202,618	104,18
202,997	105,43
203,375	106,69
203,754	107,85
204,133	109,13
204,511	108,05
204,89	107,59
205,269	109,35
205,647	111,94
206,026	116,89
206,404	121,61
206,782	122,33
207,161	123,63
207,539	125,1
207,918	127,68
208,296	126,35
208,674	125,41
209,052	126,97
209,431	129,05
209,809	130,76
210,187	128,1
210,565	128,6
210,943	128,08
211,321	127,59
211,699	128,12
212,077	128,99
212,455	131,75
212,833	133,21
213,211	131,55
213,589	129,28
213,967	126,79
214,345	122,87
214,722	119
215,1	115,71
215,478	113,74
215,855	110,92
216,233	111,22
216,611	112,41
216,988	114,79
217,366	116,97
217,743	116,59
218,121	118,31
218,498	119,81
218,876	121,12
219,253	123,06
219,631	121,66
220,008	120,62
220,385	120,9
220,762	118,64
221,14	119,37
221,517	122,95
221,894	124,55
222,271	126,64
222,648	129,06
223,025	131,55
223,402	133,58
223,78	133,81
224,157	133,13
224,533	133,98
224,91	132,37
225,287	131,05
225,664	130,45
226,041	129,75
226,418	128,72
226,795	130,35
227,171	131,74
227,548	137,87
227,925	145,3
228,301	147,24
228,678	149,44
229,055	152,82
229,431	153,92
229,808	151,9
230,184	154,83
230,561	160,68
230,937	164,93
231,313	169,54
231,69	178,43
232,066	186,24
232,442	190,4
232,819	196,16
233,195	201,21
233,571	210,32
233,947	211,11
234,323	216,3
234,699	223,48
235,075	232,14
235,451	236,44
235,827	238,2
236,203	238,87
236,579	252,62
236,955	268,03
237,331	288,23
237,707	337,22
238,083	404,05
238,459	511,6
238,834	898,79
239,21	4582,61
239,586	-1711,9
239,961	-1042,13
240,337	-874,12
240,713	-610,55
241,088	-445,71
241,464	-373,75
241,839	-308,6
242,215	-249,07
242,59	-197,14
242,965	-151,54
243,341	-112,49
243,716	-88,92
244,091	-75,06
244,467	-66,37
244,842	-61,06
245,217	-59,21
245,592	-58
245,967	-58,05
246,343	-57,85
246,718	-59,54
247,093	-60,11
247,468	-59,92
247,843	-58,06
248,218	-54,15
248,593	-52,21
248,967	-50,47
249,342	-48,99
249,717	-49,06
250,092	-49,6
250,467	-50,26
250,841	-52,86
251,216	-58,44
251,591	-63,72
251,965	-70,15
252,34	-77,66
252,714	-82,1
253,089	-82,8
253,463	-81,32
253,838	-78,49
254,212	-76,5
254,587	-74,19
254,961	-70,98
255,335	-65,4
255,71	-56,98
256,084	-46,95
256,458	-39,01
256,832	-32,82
257,206	-29,55
257,581	-27,25
257,955	-26,54
258,329	-25,8
258,703	-24,89
259,077	-24,24
259,451	-23,81
259,825	-23,32
260,199	-22,48
260,572	-22,65
260,946	-23,07
261,32	-23,5
261,694	-23,26
262,068	-23,08
262,441	-22,15
262,815	-20,95
263,189	-20,81
263,562	-20,62
263,936	-21,55
264,309	-23,12
264,683	-25,6
265,056	-26,85
265,43	-26,81
265,803	-26,08
266,176	-25,27
266,55	-24,59
266,923	-23,9
267,296	-23,52
267,67	-22,9
268,043	-22,23
268,416	-21,54
268,789	-19,95
269,162	-18,26
269,535	-16,91
269,908	-15,58
270,281	-15,1
270,654	-15,26
271,027	-15,28
271,4	-16,22
271,773	-17,12
272,146	-17,68
272,519	-17,89
272,891	-18,13
273,264	-18,77
273,637	-18,75
274,01	-18,91
274,382	-19,28
274,755	-19,43
275,127	-19,58
275,5	-19,48
275,872	-19,23
276,245	-18,82
276,617	-18,91
276,99	-19,83
277,362	-20,86
277,734	-21,05
278,107	-20,85
278,479	-19,86
278,851	-19,34
279,223	-18,46
279,596	-17,6
279,968	-16,75
280,34	-16,12
280,712	-15,68
281,084	-15,02
281,456	-14,36
281,828	-13,63
282,2	-12,69
282,572	-11,65
282,944	-10,63
283,315	-10,09
283,687	-9,82
284,059	-9,57
284,431	-9,45
284,802	-8,99
285,174	-8,78
285,546	-8,75
285,917	-8,85
286,289	-9,08
286,66	-8,78
287,032	-8,43
287,403	-8,06
287,775	-7,64
288,146	-7,5
288,518	-7,44
288,889	-7,58
289,26	-7,48
289,632	-7,47
290,003	-7,77
290,374	-8,26
290,745	-8,95
291,116	-9,19
291,487	-9,08
291,858	-9,12
292,229	-8,94
292,6	-8,62
292,971	-8,36
293,342	-8,08
293,713	-7,49
294,084	-7,34
294,455	-7,32
294,826	-7,42
295,196	-7,49
295,567	-7,62
295,938	-7,56
296,308	-7,62
296,679	-7,34
297,05	-7,28
297,42	-7,5
297,791	-7,41
298,161	-7,24
298,532	-6,85
298,902	-6,68
299,272	-6,69
299,643	-6,42
300,013	-6,33
300,383	-6,43
300,754	-6,33
301,124	-6,49
301,494	-6,84
301,864	-6,76
302,234	-6,74
302,604	-6,45
302,974	-6,37
303,344	-6,35
303,714	-6,19
304,084	-5,87
304,454	-5,49
304,824	-5,27
305,194	-5,03
305,563	-4,95
305,933	-4,79
306,303	-4,7
306,673	-4,54
307,042	-4,53
307,412	-4,47
307,781	-4,2
308,151	-3,98
308,521	-3,86
308,89	-3,5
309,259	-3,26
309,629	-3,28
309,998	-3,37
310,368	-3,54
310,737	-3,5
311,106	-3,61
311,475	-3,74
311,845	-3,68
312,214	-3,8
312,583	-4,04
312,952	-4,05
313,321	-4,04
313,69	-4,16
314,059	-4,11
314,428	-3,97
314,797	-3,87
315,166	-3,95
315,535	-4,18
315,904	-4,35
316,272	-4,63
316,641	-4,77
317,01	-4,77
317,379	-4,66
317,747	-4,48
318,116	-4,38
318,484	-4,41
318,853	-4,39
319,221	-4,3
319,59	-4,21
319,958	-4,18
320,327	-3,9
320,695	-3,7
321,063	-3,44
321,432	-3,16
321,8	-3,15
322,168	-3,21
322,536	-3,04
322,905	-3,03
323,273	-3,07
323,641	-3,04
324,009	-2,83
324,377	-2,71
324,745	-2,59
325,113	-2,42
325,481	-2,34
325,849	-2,32
326,216	-2,14
326,584	-1,89
326,952	-1,83
327,32	-1,91
327,687	-1,88
328,055	-1,9
328,423	-1,9
328,79	-1,94
329,158	-2,11
329,525	-2,16
329,893	-2,11
330,26	-2,26
330,628	-2,15
330,995	-1,91
331,362	-1,7
331,73	-1,64
332,097	-1,68
332,464	-1,71
332,831	-1,75
333,199	-1,56
333,566	-1,3
333,933	-1,26
334,3	-1,36
334,667	-1,33
335,034	-1,4
335,401	-1,36
335,768	-1,23
336,135	-1,1
336,502	-0,94
336,868	-0,67
337,235	-0,43
337,602	-0,26
337,969	-0,01
338,335	0,09
338,702	0,09
339,069	0,1
339,435	0,2
339,802	0,27
340,168	0,32
340,535	0,33
340,901	0,26
341,267	0,15
341,634	0,26
342	0,32
342,366	0,37
342,733	0,46
343,099	0,57
343,465	0,6
343,831	0,63
344,197	0,7
344,563	0,74
344,929	0,68
345,295	0,6
345,661	0,5
346,027	0,49
346,393	0,59
346,759	0,71
347,125	0,76
347,491	0,82
347,856	0,87
348,222	1,02
348,588	1,12
348,953	1,23
349,319	1,17
349,684	1,17
350,05	1,15
350,415	1,17
350,781	1,2
351,146	1,22
351,512	1,2
351,877	1,15
352,242	1,14
352,608	1,21
352,973	1,29
353,338	1,39
353,703	1,42
354,068	1,37
354,433	1,32
354,798	1,34
355,164	1,31
355,528	1,34
355,893	1,36
356,258	1,39
356,623	1,35
356,988	1,36
357,353	1,43
357,718	1,51
358,082	1,64
358,447	1,66
358,812	1,7
359,176	1,79
359,541	1,86
359,905	1,89
360,27	1,82
360,634	1,85
360,999	1,86
361,363	1,93
361,728	2,02
362,092	2,15
362,456	2,21
362,821	2,33
363,185	2,43
363,549	2,42
363,913	2,39
364,277	2,45
364,641	2,55
365,005	2,64
365,369	2,67
365,733	2,69
366,097	2,76
366,461	2,72
366,825	2,72
367,189	2,77
367,553	2,87
367,916	3,08
368,28	3,18
368,644	3,25
369,007	3,31
369,371	3,35
369,734	3,35
370,098	3,43
370,461	3,48
370,825	3,52
371,188	3,57
371,552	3,71
371,915	3,82
372,278	3,94
372,642	4
373,005	4,05
373,368	4,05
373,731	4,09
374,094	4,22
374,457	4,32
374,82	4,37
375,183	4,44
375,546	4,48
375,909	4,53
376,272	4,59
376,635	4,68
376,998	4,73
377,361	4,81
377,723	4,82
378,086	4,81
378,449	4,86
378,811	4,92
379,174	4,97
379,537	5,02
379,899	5,05
380,262	5,06
380,624	5,16
380,987	5,25
381,349	5,3
381,711	5,34
382,074	5,32
382,436	5,34
382,798	5,41
383,16	5,42
383,522	5,42
383,884	5,45
384,247	5,47
384,609	5,52
384,971	5,53
385,333	5,56
385,695	5,61
386,056	5,58
386,418	5,59
386,78	5,59
387,142	5,54
387,504	5,49
387,865	5,52
388,227	5,51
388,589	5,55
388,95	5,6
389,312	5,6
389,673	5,63
390,035	5,65
390,396	5,6
390,758	5,59
391,119	5,66
391,48	5,69
391,842	5,66
392,203	5,65
392,564	5,65
392,925	5,69
393,286	5,7
393,648	5,74
394,009	5,77
394,37	5,8
394,731	5,88
395,092	5,91
395,452	5,92
395,813	5,94
396,174	5,93
396,535	5,92
396,896	5,94
397,257	6
397,617	6,06
397,978	6,13
398,338	6,17
398,699	6,16
399,06	6,16
399,42	6,19
399,781	6,2
400,141	6,21
400,501	6,17
400,862	6,18
401,222	6,18
401,582	6,18
401,943	6,15
402,303	6,12
402,663	6,14
403,023	6,13
403,383	6,14
403,743	6,16
404,103	6,15
404,463	6,15
404,823	6,13
405,183	6,11
405,543	6,07
405,903	6,09
406,262	6,06
406,622	6,05
406,982	6,05
407,342	6,08
407,701	6,11
408,061	6,18
408,42	6,2
408,78	6,23
409,139	6,22
409,499	6,22
409,858	6,25
410,217	6,26
410,577	6,29
410,936	6,25
411,295	6,24
411,655	6,23
412,014	6,23
412,373	6,21
412,732	6,19
413,091	6,17
413,45	6,13
413,809	6,13
414,168	6,1
414,527	6,03
414,886	5,98
415,245	5,94
415,603	5,89
415,962	5,85
416,321	5,79
416,679	5,77
417,038	5,73
417,397	5,66
417,755	5,62
418,114	5,59
418,472	5,58
418,831	5,57
419,189	5,56
419,547	5,54
419,906	5,53
420,264	5,52
420,622	5,51
420,981	5,5
421,339	5,48
421,697	5,48
422,055	5,51
422,413	5,53
422,771	5,53
423,129	5,53
423,487	5,55
423,845	5,58
424,203	5,59
424,56	5,62
424,918	5,67
425,276	5,71
425,634	5,74
425,991	5,78
426,349	5,8
426,707	5,84
427,064	5,89
427,422	5,92
427,779	5,98
428,137	6,01
428,494	6,08
428,851	6,13
429,209	6,16
429,566	6,16
429,923	6,15
430,28	6,16
430,637	6,19
430,995	6,19
431,352	6,19
431,709	6,19
432,066	6,22
432,423	6,22
432,78	6,23
433,137	6,25
433,493	6,24
433,85	6,26
434,207	6,22
434,564	6,21
434,92	6,2
435,277	6,19
435,634	6,19
435,99	6,17
436,347	6,14
436,703	6,14
437,06	6,12
437,416	6,16
437,773	6,15
438,129	6,14
438,485	6,15
438,841	6,15
439,198	6,17
439,554	6,18
439,91	6,19
440,266	6,19
440,622	6,18
440,978	6,18
441,334	6,16
441,69	6,16
442,046	6,17
442,402	6,15
442,758	6,14
443,113	6,13
443,469	6,13
443,825	6,14
444,181	6,15
444,536	6,17
444,892	6,14
445,247	6,16
445,603	6,17
445,958	6,18
446,314	6,18
446,669	6,19
447,025	6,19
447,38	6,18
447,735	6,19
448,09	6,2
448,446	6,2
448,801	6,22
449,156	6,25
449,511	6,26
449,866	6,3
450,221	6,35
450,576	6,39
450,931	6,44
451,286	6,49
451,641	6,53
451,995	6,56
452,35	6,58
452,705	6,59
453,06	6,59
453,414	6,61
453,769	6,62
454,123	6,62
454,478	6,63
454,832	6,64
455,187	6,64
455,541	6,64
455,896	6,63
456,25	6,61
456,604	6,61
456,958	6,59
457,313	6,57
457,667	6,55
458,021	6,54
458,375	6,54
458,729	6,55
459,083	6,54
459,437	6,56
459,791	6,57
460,145	6,59
460,499	6,6
460,852	6,6
461,206	6,62
461,56	6,63
461,914	6,63
462,267	6,63
462,621	6,63
462,974	6,64
463,328	6,68
463,681	6,73
464,035	6,74
464,388	6,76
464,742	6,77
465,095	6,79
465,448	6,83
465,801	6,82
466,155	6,82
466,508	6,84
466,861	6,84
467,214	6,85
467,567	6,86
467,92	6,87
468,273	6,89
468,626	6,87
468,979	6,88
469,332	6,9
469,684	6,91
470,037	6,94
470,39	6,93
470,743	6,95
471,095	6,98
471,448	7,01
471,8	7,04
472,153	7,08
472,505	7,11
472,858	7,11
473,21	7,14
473,562	7,17
473,915	7,17
474,267	7,17
474,619	7,2
474,971	7,2
475,324	7,2
475,676	7,21
476,028	7,2
476,38	7,22
476,732	7,21
477,084	7,24
477,436	7,24
477,787	7,26
478,139	7,24
478,491	7,23
478,843	7,21
479,195	7,23
479,546	7,2
479,898	7,17
480,249	7,14
480,601	7,11
480,952	7,08
481,304	7,07
481,655	7,07
482,007	7,05
482,358	7,05
482,709	7,06
483,061	7,06
483,412	7,06
483,763	7,07
484,114	7,06
484,465	7,05
484,816	7,05
485,167	7,04
485,518	7,04
485,869	7,05
486,22	7,06
486,571	7,06
486,922	7,07
487,272	7,1
487,623	7,12
487,974	7,15
488,324	7,17
488,675	7,2
489,025	7,21
489,376	7,22
489,726	7,24
490,077	7,25
490,427	7,27
490,778	7,29
491,128	7,31
491,478	7,35
491,828	7,39
492,179	7,43
492,529	7,47
492,879	7,49
493,229	7,52
493,579	7,53
493,929	7,53
494,279	7,55
494,629	7,56
494,979	7,58
495,328	7,62
495,678	7,65
496,028	7,68
496,378	7,74
496,727	7,79
497,077	7,82
497,426	7,87
497,776	7,89
498,125	7,89
498,475	7,9
498,824	7,91
499,174	7,92
499,523	7,93
499,872	7,93
500,221	7,97
500,571	8,01
500,92	8,03
501,269	8,09
501,618	8,09
501,967	8,12
502,316	8,14
502,665	8,17
503,014	8,21
503,363	8,24
503,711	8,25
504,06	8,27
504,409	8,26
504,758	8,23
505,106	8,25
505,455	8,28
505,803	8,29
506,152	8,3
506,5	8,31
506,849	8,33
507,197	8,36
507,546	8,37
507,894	8,39
508,242	8,4
508,59	8,41
508,939	8,42
509,287	8,42
509,635	8,43
509,983	8,43
510,331	8,45
510,679	8,48
511,027	8,5
511,375	8,53
511,723	8,57
512,07	8,6
512,418	8,63
512,766	8,65
513,114	8,71
513,461	8,74
513,809	8,77
514,156	8,79
514,504	8,79
514,851	8,79
515,199	8,79
515,546	8,81
515,893	8,81
516,241	8,84
516,588	8,86
516,935	8,88
517,282	8,91
517,63	8,94
517,977	8,95
518,324	8,97
518,671	8,96
519,018	8,97
519,365	8,99
519,711	9,01
520,058	9,04
520,405	9,02
520,752	9,03
521,099	9,04
521,445	9,07
521,792	9,09
522,138	9,12
522,485	9,15
522,832	9,19
523,178	9,22
523,524	9,24
523,871	9,25
524,217	9,26
524,563	9,27
524,91	9,27
525,256	9,28
525,602	9,28
525,948	9,3
526,294	9,3
526,64	9,31
526,986	9,29
527,332	9,29
527,678	9,3
528,024	9,31
528,37	9,34
528,716	9,33
529,061	9,35
529,407	9,37
529,753	9,39
530,098	9,4
530,444	9,42
530,789	9,43
531,135	9,46
531,48	9,47
531,826	9,49
532,171	9,52
532,516	9,56
532,862	9,6
533,207	9,63
533,552	9,67
533,897	9,71
534,242	9,76
534,587	9,8
534,932	9,83
535,277	9,85
535,622	9,85
535,967	9,88
536,312	9,93
536,657	9,95
537,001	9,99
537,346	10,04
537,691	10,07
538,035	10,12
538,38	10,13
538,724	10,16
539,069	10,17
539,413	10,18
539,758	10,19
540,102	10,2
540,446	10,21
540,791	10,23
541,135	10,24
541,479	10,25
541,823	10,26
542,167	10,27
542,512	10,3
542,856	10,3
543,2	10,31
543,543	10,31
543,887	10,33
544,231	10,36
544,575	10,37
544,919	10,41
545,262	10,44
545,606	10,5
545,95	10,53
546,293	10,58
546,637	10,63
546,98	10,69
547,324	10,73
547,667	10,79
548,011	10,82
548,354	10,84
548,697	10,85
549,04	10,89
549,384	10,93
549,727	10,94
550,07	11
550,413	11,04
550,756	11,07
551,099	11,11
551,442	11,1
551,785	11,13
552,128	11,14
552,47	11,15
552,813	11,16
553,156	11,17
553,499	11,18
553,841	11,18
554,184	11,17
554,526	11,17
554,869	11,15
555,211	11,15
555,554	11,18
555,896	11,21
556,238	11,2
556,581	11,2
556,923	11,21
557,265	11,24
557,607	11,26
557,949	11,28
558,291	11,28
558,633	11,32
558,975	11,31
559,317	11,31
559,659	11,31
560,001	11,32
560,343	11,33
560,685	11,32
561,026	11,32
561,368	11,35
561,71	11,4
562,051	11,44
562,393	11,49
562,734	11,5
563,076	11,52
563,417	11,54
563,759	11,55
564,1	11,57
564,441	11,58
564,782	11,55
565,124	11,55
565,465	11,55
565,806	11,55
566,147	11,58
566,488	11,6
566,829	11,63
567,17	11,62
567,511	11,65
567,851	11,66
568,192	11,69
568,533	11,68
568,874	11,67
569,214	11,69
569,555	11,71
569,895	11,74
570,236	11,75
570,576	11,76
570,917	11,78
571,257	11,78
571,598	11,79
571,938	11,83
572,278	11,86
572,618	11,93
572,959	11,96
573,299	11,97
573,639	12,01
573,979	12,03
574,319	12,06
574,659	12,07
574,999	12,1
575,339	12,12
575,678	12,15
576,018	12,18
576,358	12,2
576,698	12,21
577,037	12,21
577,377	12,24
577,716	12,26
578,056	12,28
578,395	12,33
578,735	12,37
579,074	12,41
579,413	12,44
579,753	12,43
580,092	12,45
580,431	12,48
580,77	12,5
581,109	12,51
581,448	12,53
581,787	12,53
582,126	12,57
582,465	12,6
582,804	12,62
583,143	12,67
583,482	12,72
583,82	12,72
584,159	12,76
584,498	12,81
584,836	12,85
585,175	12,87
585,514	12,87
585,852	12,88
586,19	12,92
586,529	12,94
586,867	12,97
587,205	13,01
587,544	13,07
587,882	13,08
588,22	13,11
588,558	13,16
588,896	13,22
589,234	13,25
589,572	13,3
589,91	13,35
590,248	13,37
590,586	13,4
590,924	13,43
591,262	13,46
591,599	13,46
591,937	13,52
592,275	13,54
592,612	13,59
592,95	13,63
593,287	13,68
593,625	13,73
593,962	13,77
594,299	13,8
594,637	13,85
594,974	13,89
595,311	13,95
595,648	13,97
595,985	13,99
596,322	14
596,659	14,02
596,996	14,04
597,333	14,05
597,67	14,06
598,007	14,09
598,344	14,13
598,681	14,2
599,017	14,19
599,354	14,24
599,691	14,28
600,027	14,33
600,364	14,35
600,7	14,39
601,037	14,46
601,373	14,54
601,71	14,56
602,046	14,63
602,382	14,61
602,718	14,65
603,054	14,7
603,391	14,74
603,727	14,77
604,063	14,78
604,399	14,8
604,735	14,82
605,071	14,85
605,406	14,91
605,742	14,93
606,078	14,98
606,414	15,02
606,749	15,06
607,085	15,09
607,421	15,12
607,756	15,13
608,092	15,14
608,427	15,11
608,762	15,12
609,098	15,15
609,433	15,19
609,768	15,2
610,104	15,21
610,439	15,22
610,774	15,24
611,109	15,25
611,444	15,3
611,779	15,34
612,114	15,36
612,449	15,34
612,784	15,37
613,118	15,37
613,453	15,35
613,788	15,35
614,123	15,33
614,457	15,33
614,792	15,31
615,126	15,35
615,461	15,37
615,795	15,4
616,13	15,38
616,464	15,41
616,798	15,45
617,132	15,45
617,467	15,5
617,801	15,5
618,135	15,53
618,469	15,58
618,803	15,59
619,137	15,64
619,471	15,67
619,805	15,69
620,139	15,74
620,472	15,77
620,806	15,83
621,14	15,9
621,473	15,92
621,807	15,99
622,141	16
622,474	16,07
622,808	16,1
623,141	16,2
623,474	16,26
623,808	16,3
624,141	16,4
624,474	16,42
624,807	16,46
625,141	16,49
625,474	16,51
625,807	16,54
626,14	16,55
626,473	16,61
626,806	16,66
627,138	16,71
627,471	16,76
627,804	16,75
628,137	16,74
628,469	16,79
628,802	16,84
629,135	16,91
629,467	16,95
629,8	16,97
630,132	16,95
630,465	17,01
630,797	17,1
631,129	17,08
631,461	17,12
631,794	17,18
632,126	17,24
632,458	17,28
632,79	17,29
633,122	17,35
633,454	17,36
633,786	17,36
634,118	17,36
634,45	17,45
634,781	17,53
635,113	17,59
635,445	17,58
635,777	17,61
636,108	17,6
636,44	17,61
636,771	17,65
637,103	17,67
637,434	17,67
637,765	17,66
638,097	17,68
638,428	17,68
638,759	17,66
639,09	17,68
639,422	17,69
639,753	17,74
640,084	17,73
640,415	17,72
640,746	17,76
641,077	17,76
641,407	17,72
641,738	17,71
642,069	17,67
642,4	17,74
642,73	17,72
643,061	17,72
643,392	17,73
643,722	17,71
644,053	17,78
644,383	17,78
644,713	17,8
645,044	17,84
645,374	17,91
645,704	17,95
646,034	17,96
646,365	17,99
646,695	18,01
647,025	18,05
647,355	18,11
647,685	18,16
648,015	18,2
648,344	18,25
648,674	18,32
649,004	18,4
649,334	18,48
649,663	18,57
649,993	18,64
650,323	18,69
650,652	18,72
650,982	18,72
651,311	18,73
651,64	18,72
651,97	18,75
652,299	18,72
652,628	18,75
652,958	18,78
653,287	18,79
653,616	18,75
653,945	18,74
654,274	18,79
654,603	18,76
654,932	18,83
655,261	18,87
655,589	18,92
655,918	18,94
656,247	18,94
656,576	18,96
656,904	19,02
657,233	19,06
