Data from zc_m2_p4_Reflection_2,txt Node
Date: Wed Nov 25 16:49:10 GMT-03:00 2020
User: Darío
Spectrometer: USB2E3644
Trigger mode: 4
Integration Time (sec): 9,000000E-2
Scans to average: 10
Electric dark correction enabled: true
Nonlinearity correction enabled: false
Boxcar width: 10
XAxis mode: Wavelengths
Number of Pixels in Spectrum: 2048
>>>>>Begin Spectral Data<<<<<
178,315	205,54
178,696	155,26
179,076	140,63
179,457	103,59
179,838	95,49
180,218	109,78
180,599	118,65
180,979	136,36
181,36	-95,07
181,74	-336,76
182,121	494,03
182,501	216,93
182,881	206,99
183,262	194
183,642	185,3
184,022	175,7
184,402	172,96
184,783	174,92
185,163	166,61
185,543	163,51
185,923	161,07
186,303	156,24
186,683	152,26
187,063	149,85
187,443	145,91
187,823	143,82
188,203	140,88
188,583	138,95
188,963	137,58
189,343	132,85
189,723	130,63
190,102	130,34
190,482	128,22
190,862	126,87
191,242	126,02
191,621	127,75
192,001	129,31
192,38	129,1
192,76	129,09
193,14	128,61
193,519	126,31
193,898	125,16
194,278	123,53
194,657	123,65
195,037	122,16
195,416	120,48
195,795	119,35
196,175	118,34
196,554	117,53
196,933	117,51
197,312	117,41
197,692	117,37
198,071	115,28
198,45	113,5
198,829	112,78
199,208	112,25
199,587	111,4
199,966	110,81
200,345	111,16
200,724	110,42
201,103	109,14
201,482	108,27
201,86	107,87
202,239	108,05
202,618	107,64
202,997	107,92
203,375	109,1
203,754	109,66
204,133	110,85
204,511	110,68
204,89	110,16
205,269	109,12
205,647	108,86
206,026	111,25
206,404	113,73
206,782	114,72
207,161	116,2
207,539	117,29
207,918	117,79
208,296	117,1
208,674	117,62
209,052	118,55
209,431	121,08
209,809	122,26
210,187	120,33
210,565	119,66
210,943	121,07
211,321	121,73
211,699	123,57
212,077	125,9
212,455	128,72
212,833	130,82
213,211	129,87
213,589	128,56
213,967	127,18
214,345	124,46
214,722	122,07
215,1	119,94
215,478	118,73
215,855	118,48
216,233	120,19
216,611	120,84
216,988	121,65
217,366	123,02
217,743	124,78
218,121	130,33
218,498	133,18
218,876	133,57
219,253	134,93
219,631	132,74
220,008	131,69
220,385	133,37
220,762	133,72
221,14	136,9
221,517	141,62
221,894	144,09
222,271	148,36
222,648	150,81
223,025	151,92
223,402	152,68
223,78	151,46
224,157	147,86
224,533	148,01
224,91	146,87
225,287	146,02
225,664	145,12
226,041	145,52
226,418	148,23
226,795	151,79
227,171	152,13
227,548	156,94
227,925	161,06
228,301	159,06
228,678	159,18
229,055	159,75
229,431	160,53
229,808	157,91
230,184	160,28
230,561	167,49
230,937	174,97
231,313	180,75
231,69	188,64
232,066	198,83
232,442	206,98
232,819	217,22
233,195	223,44
233,571	231,43
233,947	229,33
234,323	228,01
234,699	230,21
235,075	239,18
235,451	246,03
235,827	249,15
236,203	256,54
236,579	276,8
236,955	300,2
237,331	324,63
237,707	383,28
238,083	462,8
238,459	583,45
238,834	1011,96
239,21	5066,96
239,586	-1871,7
239,961	-1113,66
240,337	-906,13
240,713	-619,48
241,088	-447,55
241,464	-378,2
241,839	-309,58
242,215	-248,44
242,59	-196,87
242,965	-150,07
243,341	-111,41
243,716	-87,96
244,091	-73,74
244,467	-63,95
244,842	-57,3
245,217	-54,04
245,592	-52,16
245,967	-53,12
246,343	-52,09
246,718	-53,82
247,093	-56,05
247,468	-56,97
247,843	-56,89
248,218	-54,27
248,593	-52,89
248,967	-50,7
249,342	-47,95
249,717	-47,64
250,092	-48,45
250,467	-49,44
250,841	-51,75
251,216	-56,53
251,591	-60,91
251,965	-65,63
252,34	-70,18
252,714	-73,95
253,089	-75,64
253,463	-75,65
253,838	-70,37
254,212	-67,93
254,587	-64,44
254,961	-59,99
255,335	-54,93
255,71	-46,54
256,084	-37,47
256,458	-31,02
256,832	-26,91
257,206	-25,12
257,581	-23,2
257,955	-22,28
258,329	-21,31
258,703	-20,78
259,077	-20,25
259,451	-19,92
259,825	-19,3
260,199	-18,84
260,572	-18,91
260,946	-19,24
261,32	-19,3
261,694	-19,07
262,068	-19,01
262,441	-18,23
262,815	-17,23
263,189	-17,01
263,562	-17,46
263,936	-18,61
264,309	-19,6
264,683	-20,69
265,056	-20,95
265,43	-20,49
265,803	-19,73
266,176	-18,9
266,55	-17,69
266,923	-16,96
267,296	-16,78
267,67	-16,66
268,043	-16,49
268,416	-16,08
268,789	-14,92
269,162	-13,63
269,535	-12,86
269,908	-12,1
270,281	-11,74
270,654	-12,01
271,027	-12,5
271,4	-12,79
271,773	-13,08
272,146	-13,73
272,519	-14,55
272,891	-15,03
273,264	-15,67
273,637	-15,81
274,01	-16,21
274,382	-17,01
274,755	-17,02
275,127	-17,08
275,5	-16,9
275,872	-16,53
276,245	-16,03
276,617	-16,18
276,99	-17,03
277,362	-18,09
277,734	-18,17
278,107	-18,44
278,479	-17,53
278,851	-16,77
279,223	-16,01
279,596	-15,4
279,968	-14,51
280,34	-13,91
280,712	-13,89
281,084	-13,51
281,456	-12,95
281,828	-12,13
282,2	-11,43
282,572	-10,93
282,944	-10,26
283,315	-9,86
283,687	-9,81
284,059	-9,57
284,431	-9,15
284,802	-8,53
285,174	-7,75
285,546	-7,52
285,917	-7,42
286,289	-7,44
286,66	-7,11
287,032	-6,93
287,403	-7
287,775	-6,8
288,146	-6,56
288,518	-6,2
288,889	-6,16
289,26	-6,11
289,632	-6,22
290,003	-6,09
290,374	-6,3
290,745	-6,77
291,116	-6,88
291,487	-6,74
291,858	-6,92
292,229	-6,89
292,6	-6,44
292,971	-6,15
293,342	-5,79
293,713	-5,01
294,084	-4,71
294,455	-4,45
294,826	-4,27
295,196	-3,97
295,567	-3,89
295,938	-3,79
296,308	-3,74
296,679	-3,44
297,05	-3,07
297,42	-2,99
297,791	-2,81
298,161	-2,66
298,532	-2,42
298,902	-2,4
299,272	-2,23
299,643	-1,75
300,013	-1,55
300,383	-1,57
300,754	-1,65
301,124	-1,88
301,494	-2,03
301,864	-1,94
302,234	-2,1
302,604	-1,81
302,974	-1,64
303,344	-1,63
303,714	-1,34
304,084	-1
304,454	-0,64
304,824	-0,62
305,194	-0,5
305,563	-0,64
305,933	-0,31
306,303	0,12
306,673	0,77
307,042	1,15
307,412	1,13
307,781	1,36
308,151	1,61
308,521	2,02
308,89	2,48
309,259	2,81
309,629	3,02
309,998	3,35
310,368	3,44
310,737	3,64
311,106	3,75
311,475	3,74
311,845	3,84
312,214	3,75
312,583	3,72
312,952	4,02
313,321	4,3
313,69	4,37
314,059	4,56
314,428	4,61
314,797	4,69
315,166	4,95
315,535	5,1
315,904	5,16
316,272	4,88
316,641	5,04
317,01	5,01
317,379	5,02
317,747	5,37
318,116	5,53
318,484	5,62
318,853	5,82
319,221	6
319,59	6,16
319,958	6,36
320,327	6,6
320,695	6,87
321,063	7,2
321,432	7,49
321,8	7,68
322,168	7,81
322,536	7,75
322,905	7,52
323,273	7,59
323,641	7,71
324,009	8,08
324,377	8,23
324,745	8,36
325,113	8,61
325,481	8,67
325,849	8,67
326,216	8,8
326,584	8,82
326,952	8,92
327,32	9,05
327,687	9,19
328,055	9,34
328,423	9,38
328,79	9,44
329,158	9,44
329,525	9,53
329,893	9,71
330,26	9,89
330,628	10,12
330,995	10,19
331,362	10,2
331,73	10,26
332,097	10,31
332,464	10,44
332,831	10,53
333,199	10,71
333,566	10,92
333,933	11,14
334,3	11,31
334,667	11,39
335,034	11,27
335,401	11,4
335,768	11,62
336,135	11,74
336,502	11,78
336,868	12,05
337,235	12,31
337,602	12,5
337,969	12,66
338,335	12,87
338,702	12,97
339,069	13,09
339,435	13,2
339,802	13,4
340,168	13,51
340,535	13,49
340,901	13,46
341,267	13,45
341,634	13,62
342	13,84
342,366	13,93
342,733	14,18
343,099	14,33
343,465	14,36
343,831	14,39
344,197	14,57
344,563	14,56
344,929	14,44
345,295	14,4
345,661	14,5
346,027	14,5
346,393	14,64
346,759	14,91
347,125	15,06
347,491	15,14
347,856	15,36
348,222	15,52
348,588	15,65
348,953	15,82
349,319	15,85
349,684	15,75
350,05	15,77
350,415	15,89
350,781	16,02
351,146	16,2
351,512	16,24
351,877	16,29
352,242	16,42
352,608	16,58
352,973	16,66
353,338	16,76
353,703	16,86
354,068	16,91
354,433	16,82
354,798	16,86
355,164	16,86
355,528	16,87
355,893	16,89
356,258	16,87
356,623	16,89
356,988	16,9
357,353	17,04
357,718	17,18
358,082	17,19
358,447	17,22
358,812	17,16
359,176	17,34
359,541	17,46
359,905	17,54
360,27	17,52
360,634	17,58
360,999	17,6
361,363	17,75
361,728	17,87
362,092	18,04
362,456	18,08
362,821	18,15
363,185	18,23
363,549	18,34
363,913	18,49
364,277	18,59
364,641	18,74
365,005	18,87
365,369	18,94
365,733	19,07
366,097	19,15
366,461	19,26
366,825	19,31
367,189	19,35
367,553	19,44
367,916	19,66
368,28	19,8
368,644	19,9
369,007	20,01
369,371	20,13
369,734	20,18
370,098	20,32
370,461	20,45
370,825	20,5
371,188	20,6
371,552	20,71
371,915	20,85
372,278	20,94
372,642	21,06
373,005	21,12
373,368	21,19
373,731	21,22
374,094	21,31
374,457	21,39
374,82	21,48
375,183	21,65
375,546	21,69
375,909	21,74
376,272	21,85
376,635	21,95
376,998	22,01
377,361	22,1
377,723	22,15
378,086	22,21
378,449	22,3
378,811	22,38
379,174	22,5
379,537	22,54
379,899	22,62
380,262	22,66
380,624	22,81
380,987	22,87
381,349	22,95
381,711	23,01
382,074	23,09
382,436	23,11
382,798	23,21
383,16	23,23
383,522	23,27
383,884	23,32
384,247	23,36
384,609	23,42
384,971	23,53
385,333	23,55
385,695	23,61
386,056	23,62
386,418	23,69
386,78	23,71
387,142	23,75
387,504	23,74
387,865	23,81
388,227	23,79
388,589	23,9
388,95	24
389,312	24,07
389,673	24,12
390,035	24,14
390,396	24,13
390,758	24,2
391,119	24,23
391,48	24,28
391,842	24,32
392,203	24,38
392,564	24,38
392,925	24,49
393,286	24,47
393,648	24,51
394,009	24,57
394,37	24,6
394,731	24,64
395,092	24,71
395,452	24,75
395,813	24,8
396,174	24,83
396,535	24,85
396,896	24,89
397,257	24,93
397,617	25,04
397,978	25,05
398,338	25,08
398,699	25,16
399,06	25,24
399,42	25,25
399,781	25,29
400,141	25,36
400,501	25,35
400,862	25,48
401,222	25,52
401,582	25,53
401,943	25,54
402,303	25,57
402,663	25,6
403,023	25,61
403,383	25,64
403,743	25,66
404,103	25,69
404,463	25,75
404,823	25,78
405,183	25,79
405,543	25,82
405,903	25,87
406,262	25,89
406,622	25,89
406,982	25,93
407,342	25,93
407,701	25,95
408,061	26,05
408,42	26,02
408,78	26,07
409,139	26,07
409,499	26,08
409,858	26,05
410,217	26,04
410,577	26,05
410,936	26,06
411,295	26,11
411,655	26,11
412,014	26,09
412,373	26,08
412,732	26,09
413,091	26,1
413,45	26,15
413,809	26,13
414,168	26,12
414,527	26,11
414,886	26,11
415,245	26,09
415,603	26,03
415,962	26,05
416,321	26,02
416,679	26,01
417,038	26,01
417,397	26
417,755	26,01
418,114	26
418,472	25,99
418,831	25,98
419,189	25,98
419,547	25,96
419,906	25,96
420,264	25,96
420,622	25,96
420,981	25,94
421,339	25,95
421,697	25,95
422,055	25,97
422,413	25,97
422,771	25,99
423,129	26,01
423,487	26,02
423,845	26,06
424,203	26,08
424,56	26,11
424,918	26,15
425,276	26,2
425,634	26,24
425,991	26,3
426,349	26,33
426,707	26,38
427,064	26,43
427,422	26,48
427,779	26,51
428,137	26,57
428,494	26,63
428,851	26,7
429,209	26,76
429,566	26,76
429,923	26,82
430,28	26,85
430,637	26,88
430,995	26,86
431,352	26,85
431,709	26,89
432,066	26,94
432,423	26,97
432,78	26,97
433,137	27
433,493	27
433,85	27
434,207	26,96
434,564	26,96
434,92	27
435,277	27,01
435,634	27,02
435,99	27,02
436,347	26,98
436,703	27
437,06	27
437,416	26,97
437,773	26,97
438,129	26,98
438,485	27,01
438,841	27,02
439,198	27,02
439,554	27,02
439,91	27,02
440,266	27,02
440,622	27,03
440,978	27,06
441,334	27,06
441,69	27,07
442,046	27,07
442,402	27,03
442,758	27,04
443,113	27,05
443,469	27,04
443,825	27,06
444,181	27,06
444,536	27,08
444,892	27,1
445,247	27,11
445,603	27,14
445,958	27,16
446,314	27,17
446,669	27,19
447,025	27,2
447,38	27,22
447,735	27,24
448,09	27,23
448,446	27,22
448,801	27,23
449,156	27,26
449,511	27,31
449,866	27,35
450,221	27,4
450,576	27,41
450,931	27,48
451,286	27,53
451,641	27,58
451,995	27,62
452,35	27,67
452,705	27,67
453,06	27,67
453,414	27,66
453,769	27,69
454,123	27,69
454,478	27,72
454,832	27,72
455,187	27,72
455,541	27,73
455,896	27,75
456,25	27,75
456,604	27,75
456,958	27,73
457,313	27,72
457,667	27,71
458,021	27,72
458,375	27,74
458,729	27,76
459,083	27,76
459,437	27,77
459,791	27,77
460,145	27,81
460,499	27,82
460,852	27,84
461,206	27,86
461,56	27,86
461,914	27,84
462,267	27,84
462,621	27,86
462,974	27,86
463,328	27,88
463,681	27,89
464,035	27,9
464,388	27,93
464,742	27,94
465,095	27,94
465,448	27,94
465,801	27,92
466,155	27,92
466,508	27,95
466,861	27,97
467,214	27,97
467,567	27,95
467,92	27,95
468,273	27,97
468,626	27,95
468,979	27,95
469,332	27,96
469,684	27,96
470,037	27,98
470,39	27,99
470,743	28,01
471,095	28,02
471,448	28,06
471,8	28,07
472,153	28,12
472,505	28,17
472,858	28,17
473,21	28,19
473,562	28,24
473,915	28,23
474,267	28,24
474,619	28,24
474,971	28,25
475,324	28,26
475,676	28,24
476,028	28,27
476,38	28,3
476,732	28,32
477,084	28,34
477,436	28,33
477,787	28,34
478,139	28,35
478,491	28,34
478,843	28,36
479,195	28,37
479,546	28,36
479,898	28,36
480,249	28,44
480,601	28,51
480,952	28,52
481,304	28,51
481,655	28,48
482,007	28,46
482,358	28,45
482,709	28,43
483,061	28,43
483,412	28,42
483,763	28,4
484,114	28,38
484,465	28,39
484,816	28,38
485,167	28,37
485,518	28,36
485,869	28,36
486,22	28,36
486,571	28,36
486,922	28,36
487,272	28,36
487,623	28,32
487,974	28,25
488,324	28,22
488,675	28,23
489,025	28,23
489,376	28,24
489,726	28,27
490,077	28,28
490,427	28,29
490,778	28,3
491,128	28,33
491,478	28,36
491,828	28,38
492,179	28,4
492,529	28,43
492,879	28,47
493,229	28,49
493,579	28,52
493,929	28,51
494,279	28,53
494,629	28,55
494,979	28,58
495,328	28,61
495,678	28,63
496,028	28,64
496,378	28,71
496,727	28,75
497,077	28,76
497,426	28,78
497,776	28,79
498,125	28,81
498,475	28,81
498,824	28,81
499,174	28,8
499,523	28,81
499,872	28,82
500,221	28,83
500,571	28,83
500,92	28,85
501,269	28,88
501,618	28,89
501,967	28,91
502,316	28,91
502,665	28,92
503,014	28,93
503,363	28,93
503,711	28,93
504,06	28,95
504,409	28,96
504,758	28,92
505,106	28,94
505,455	28,94
505,803	28,95
506,152	28,94
506,5	28,95
506,849	28,96
507,197	28,95
507,546	28,95
507,894	28,95
508,242	28,93
508,59	28,94
508,939	28,96
509,287	28,96
509,635	28,97
509,983	28,97
510,331	29
510,679	29,02
511,027	29,04
511,375	29,05
511,723	29,06
512,07	29,11
512,418	29,14
512,766	29,17
513,114	29,18
513,461	29,2
513,809	29,23
514,156	29,23
514,504	29,25
514,851	29,24
515,199	29,25
515,546	29,25
515,893	29,24
516,241	29,25
516,588	29,26
516,935	29,26
517,282	29,27
517,63	29,25
517,977	29,27
518,324	29,25
518,671	29,25
519,018	29,23
519,365	29,21
519,711	29,19
520,058	29,19
520,405	29,18
520,752	29,18
521,099	29,19
521,445	29,2
521,792	29,2
522,138	29,21
522,485	29,22
522,832	29,25
523,178	29,25
523,524	29,24
523,871	29,24
524,217	29,24
524,563	29,23
524,91	29,28
525,256	29,31
525,602	29,33
525,948	29,34
526,294	29,36
526,64	29,36
526,986	29,34
527,332	29,33
527,678	29,33
528,024	29,33
528,37	29,34
528,716	29,35
529,061	29,35
529,407	29,37
529,753	29,37
530,098	29,37
530,444	29,36
530,789	29,37
531,135	29,39
531,48	29,4
531,826	29,4
532,171	29,38
532,516	29,37
532,862	29,38
533,207	29,35
533,552	29,34
533,897	29,36
534,242	29,38
534,587	29,4
534,932	29,42
535,277	29,44
535,622	29,42
535,967	29,44
536,312	29,45
536,657	29,43
537,001	29,45
537,346	29,42
537,691	29,45
538,035	29,46
538,38	29,47
538,724	29,47
539,069	29,48
539,413	29,48
539,758	29,48
540,102	29,46
540,446	29,48
540,791	29,49
541,135	29,5
541,479	29,5
541,823	29,5
542,167	29,5
542,512	29,54
542,856	29,53
543,2	29,51
543,543	29,51
543,887	29,52
544,231	29,53
544,575	29,56
544,919	29,58
545,262	29,59
545,606	29,6
545,95	29,62
546,293	29,62
546,637	29,63
546,98	29,65
547,324	29,69
547,667	29,72
548,011	29,75
548,354	29,74
548,697	29,76
549,04	29,79
549,384	29,78
549,727	29,74
550,07	29,77
550,413	29,78
550,756	29,82
551,099	29,82
551,442	29,81
551,785	29,8
552,128	29,76
552,47	29,73
552,813	29,72
553,156	29,72
553,499	29,7
553,841	29,69
554,184	29,66
554,526	29,64
554,869	29,6
555,211	29,56
555,554	29,56
555,896	29,55
556,238	29,52
556,581	29,53
556,923	29,5
557,265	29,51
557,607	29,47
557,949	29,46
558,291	29,43
558,633	29,42
558,975	29,38
559,317	29,37
559,659	29,39
560,001	29,37
560,343	29,34
560,685	29,35
561,026	29,36
561,368	29,39
561,71	29,4
562,051	29,41
562,393	29,44
562,734	29,42
563,076	29,38
563,417	29,38
563,759	29,37
564,1	29,36
564,441	29,35
564,782	29,35
565,124	29,36
565,465	29,36
565,806	29,37
566,147	29,38
566,488	29,4
566,829	29,38
567,17	29,38
567,511	29,38
567,851	29,37
568,192	29,34
568,533	29,34
568,874	29,35
569,214	29,33
569,555	29,32
569,895	29,35
570,236	29,36
570,576	29,37
570,917	29,34
571,257	29,34
571,598	29,31
571,938	29,3
572,278	29,25
572,618	29,26
572,959	29,23
573,299	29,23
573,639	29,23
573,979	29,22
574,319	29,23
574,659	29,22
574,999	29,2
575,339	29,21
575,678	29,16
576,018	29,08
576,358	29,04
576,698	29,02
577,037	28,95
577,377	28,93
577,716	28,91
578,056	28,92
578,395	28,91
578,735	28,92
579,074	28,9
579,413	28,91
579,753	28,91
580,092	28,89
580,431	28,89
580,77	28,87
581,109	28,83
581,448	28,8
581,787	28,77
582,126	28,82
582,465	28,84
582,804	28,86
583,143	28,94
583,482	28,94
583,82	28,97
584,159	29,03
584,498	29,02
584,836	29,03
585,175	29,03
585,514	28,99
585,852	28,99
586,19	29,03
586,529	29,02
586,867	29
587,205	29
587,544	29,01
587,882	28,99
588,22	29,03
588,558	29,03
588,896	29,06
589,234	29,04
589,572	29,05
589,91	29,03
590,248	29,03
590,586	29,05
590,924	29,02
591,262	29
591,599	29,04
591,937	29,06
592,275	29,06
592,612	29,09
592,95	29,07
593,287	29,08
593,625	29,11
593,962	29,15
594,299	29,23
594,637	29,24
594,974	29,29
595,311	29,29
595,648	29,29
595,985	29,29
596,322	29,29
596,659	29,29
596,996	29,3
597,333	29,29
597,67	29,3
598,007	29,32
598,344	29,33
598,681	29,34
599,017	29,29
599,354	29,28
599,691	29,32
600,027	29,36
600,364	29,36
600,7	29,38
601,037	29,41
601,373	29,39
601,71	29,4
602,046	29,4
602,382	29,45
602,718	29,45
603,054	29,45
603,391	29,47
603,727	29,46
604,063	29,48
604,399	29,49
604,735	29,47
605,071	29,45
605,406	29,47
605,742	29,48
606,078	29,54
606,414	29,54
606,749	29,52
607,085	29,53
607,421	29,53
607,756	29,5
608,092	29,46
608,427	29,4
608,762	29,41
609,098	29,37
609,433	29,35
609,768	29,36
610,104	29,38
610,439	29,34
610,774	29,34
611,109	29,35
611,444	29,35
611,779	29,37
612,114	29,39
612,449	29,35
612,784	29,32
613,118	29,28
613,453	29,32
613,788	29,31
614,123	29,29
614,457	29,27
614,792	29,26
615,126	29,29
615,461	29,29
615,795	29,27
616,13	29,27
616,464	29,25
616,798	29,22
617,132	29,21
617,467	29,25
617,801	29,23
618,135	29,18
618,469	29,17
618,803	29,18
619,137	29,19
619,471	29,16
619,805	29,12
620,139	29,12
620,472	29,05
620,806	29,07
621,14	29,03
621,473	29,02
621,807	29,04
622,141	29,06
622,474	29,09
622,808	29,12
623,141	29,16
623,474	29,18
623,808	29,23
624,141	29,28
624,474	29,25
624,807	29,29
625,141	29,31
625,474	29,3
625,807	29,27
626,14	29,26
626,473	29,31
626,806	29,34
627,138	29,35
627,471	29,38
627,804	29,36
628,137	29,39
628,469	29,34
628,802	29,34
629,135	29,34
629,467	29,36
629,8	29,3
630,132	29,27
630,465	29,3
630,797	29,34
631,129	29,31
631,461	29,28
631,794	29,28
632,126	29,28
632,458	29,3
632,79	29,25
633,122	29,29
633,454	29,27
633,786	29,28
634,118	29,29
634,45	29,32
634,781	29,31
635,113	29,31
635,445	29,37
635,777	29,37
636,108	29,35
636,44	29,3
636,771	29,35
637,103	29,37
637,434	29,34
637,765	29,26
638,097	29,24
638,428	29,21
638,759	29,17
639,09	29,18
639,422	29,2
639,753	29,24
640,084	29,2
640,415	29,18
640,746	29,17
641,077	29,13
641,407	29,08
641,738	29,08
642,069	29,06
642,4	29,04
642,73	29,03
643,061	29
643,392	29,04
643,722	29,01
644,053	28,99
644,383	28,99
644,713	29
645,044	28,99
645,374	29,03
645,704	29,04
646,034	29,03
646,365	29,04
646,695	29,1
