Data from zc_m3_p3_Reflection_3,txt Node
Date: Wed Nov 25 16:55:03 GMT-03:00 2020
User: Darío
Spectrometer: USB2E3644
Trigger mode: 4
Integration Time (sec): 9,000000E-2
Scans to average: 10
Electric dark correction enabled: true
Nonlinearity correction enabled: false
Boxcar width: 10
XAxis mode: Wavelengths
Number of Pixels in Spectrum: 2048
>>>>>Begin Spectral Data<<<<<
178,315	47,48
178,696	58,7
179,076	58,59
179,457	58,65
179,838	51,22
180,218	51,56
180,599	89,06
180,979	1,82
181,36	-60
181,74	70,59
182,121	69,23
182,501	76,25
182,881	75,25
183,262	84,62
183,642	93,8
184,022	101,36
184,402	101,7
184,783	101,94
185,163	96,59
185,543	95,22
185,923	97,56
186,303	101,92
186,683	105,18
187,063	105,12
187,443	106,41
187,823	108,1
188,203	109,82
188,583	113,1
188,963	112,86
189,343	112,48
189,723	114,8
190,102	115,8
190,482	118,06
190,862	118,6
191,242	118,31
191,621	117,93
192,001	116,15
192,38	116,25
192,76	116,57
193,14	118,67
193,519	120,82
193,898	123,54
194,278	124,4
194,657	124,9
195,037	125,48
195,416	124,47
195,795	122,03
196,175	121,54
196,554	125,66
196,933	128,11
197,312	128,94
197,692	127,8
198,071	128,34
198,45	128,71
198,829	126,93
199,208	125,91
199,587	124,94
199,966	125
200,345	124,94
200,724	124,21
201,103	123,24
201,482	120,8
201,86	118,69
202,239	116,58
202,618	113,91
202,997	113,92
203,375	114,61
203,754	114,59
204,133	114,26
204,511	111,84
204,89	109,65
205,269	108,79
205,647	108,1
206,026	109,1
206,404	111,22
206,782	114,19
207,161	115,8
207,539	117,63
207,918	119,68
208,296	122,64
208,674	122,14
209,052	122,14
209,431	123,76
209,809	126,37
210,187	130,22
210,565	133,68
210,943	135,76
211,321	137,26
211,699	140,11
212,077	141,24
212,455	142,19
212,833	143,84
213,211	144,61
213,589	146,26
213,967	144,01
214,345	140,06
214,722	139,26
215,1	135,48
215,478	131,17
215,855	127,11
216,233	124,19
216,611	123,75
216,988	125,39
217,366	125,7
217,743	125,74
218,121	125,31
218,498	125
218,876	123,1
219,253	121,96
219,631	120,18
220,008	120,03
220,385	118,99
220,762	119,6
221,14	118,56
221,517	117,13
221,894	118,67
222,271	118,81
222,648	118,78
223,025	121,25
223,402	123,85
223,78	128,79
224,157	130,22
224,533	133,92
224,91	136,49
225,287	140,4
225,664	144,36
226,041	144,27
226,418	147,52
226,795	146,47
227,171	146,21
227,548	151,31
227,925	155,17
228,301	161,95
228,678	168,5
229,055	168,78
229,431	172,44
229,808	171,86
230,184	174,73
230,561	177,38
230,937	183,6
231,313	186,17
231,69	187,16
232,066	188,79
232,442	195,41
232,819	197,8
233,195	188,86
233,571	183,65
233,947	184
234,323	180,81
234,699	190,09
235,075	194,93
235,451	197,52
235,827	196,95
236,203	197,16
236,579	193,45
236,955	204,22
237,331	219,09
237,707	243,91
238,083	277,49
238,459	320,17
238,834	385,94
239,21	548,15
239,586	943,04
239,961	2281,82
240,337	5421,43
240,713	-2315,63
241,088	-927,5
241,464	-642,24
241,839	-468,15
242,215	-319,56
242,59	-229,22
242,965	-161,2
243,341	-113,89
243,716	-85,65
244,091	-72,34
244,467	-62,24
244,842	-54,96
245,217	-51,45
245,592	-49,83
245,967	-50,75
246,343	-50,64
246,718	-52,12
247,093	-54,08
247,468	-54,4
247,843	-54,34
248,218	-51,68
248,593	-50,48
248,967	-48,89
249,342	-48,14
249,717	-48,52
250,092	-49,4
250,467	-50,55
250,841	-52,7
251,216	-58
251,591	-65,57
251,965	-72,64
252,34	-79,86
252,714	-84,2
253,089	-86,93
253,463	-85,81
253,838	-80,76
254,212	-76,58
254,587	-71,94
254,961	-66,31
255,335	-60,12
255,71	-50,99
256,084	-41,73
256,458	-34,48
256,832	-28,23
257,206	-25
257,581	-22,98
257,955	-21,99
258,329	-21,28
258,703	-20,39
259,077	-19,74
259,451	-19,42
259,825	-19,02
260,199	-18,67
260,572	-19,05
260,946	-19,21
261,32	-19,38
261,694	-19,22
262,068	-19,47
262,441	-19,06
262,815	-18,71
263,189	-18,86
263,562	-19,18
263,936	-20,34
264,309	-21,65
264,683	-24,16
265,056	-25,05
265,43	-24,16
265,803	-23,28
266,176	-22,2
266,55	-21,81
266,923	-21
267,296	-20,84
267,67	-20,82
268,043	-20,65
268,416	-19,52
268,789	-17,98
269,162	-16,54
269,535	-15,41
269,908	-14,28
270,281	-13,64
270,654	-13,02
271,027	-12,82
271,4	-13,26
271,773	-13,47
272,146	-13,88
272,519	-13,61
272,891	-13,55
273,264	-14,35
273,637	-14,77
274,01	-15,37
274,382	-15,85
274,755	-16,2
275,127	-16,38
275,5	-16,02
275,872	-15,17
276,245	-14,93
276,617	-15,55
276,99	-16,65
277,362	-17,43
277,734	-17,45
278,107	-17,62
278,479	-17,18
278,851	-16,55
279,223	-15,61
279,596	-15,36
279,968	-15,01
280,34	-15,04
280,712	-15,08
281,084	-14,62
281,456	-14,02
281,828	-13,22
282,2	-12,35
282,572	-11,5
282,944	-10,53
283,315	-9,96
283,687	-9,77
284,059	-9,61
284,431	-9,07
284,802	-8,47
285,174	-8,39
285,546	-8,47
285,917	-8,39
286,289	-8,51
286,66	-8,47
287,032	-8,39
287,403	-8,21
287,775	-7,92
288,146	-7,73
288,518	-7,57
288,889	-7,44
289,26	-7,29
289,632	-7,26
290,003	-7,38
290,374	-7,95
290,745	-8,63
291,116	-8,97
291,487	-9,36
291,858	-9,54
292,229	-9,52
292,6	-9,21
292,971	-8,75
293,342	-8,11
293,713	-7,43
294,084	-7,24
294,455	-6,96
294,826	-6,86
295,196	-6,66
295,567	-6,5
295,938	-6,57
296,308	-6,81
296,679	-6,65
297,05	-6,45
297,42	-6,41
297,791	-6,16
298,161	-5,81
298,532	-5,35
298,902	-4,86
299,272	-4,38
299,643	-3,9
300,013	-3,59
300,383	-3,67
300,754	-3,83
301,124	-4,29
301,494	-4,7
301,864	-4,65
302,234	-4,59
302,604	-4,52
302,974	-4,52
303,344	-4,58
303,714	-4,28
304,084	-3,85
304,454	-3,51
304,824	-3,27
305,194	-3,16
305,563	-3,09
305,933	-3,04
306,303	-2,86
306,673	-2,68
307,042	-2,63
307,412	-2,66
307,781	-2,58
308,151	-2,32
308,521	-1,99
308,89	-1,65
309,259	-1,47
309,629	-1,48
309,998	-1,57
310,368	-1,47
310,737	-1,25
311,106	-1,18
311,475	-1,32
311,845	-1,24
312,214	-1,44
312,583	-1,6
312,952	-1,5
313,321	-1,59
313,69	-1,56
314,059	-1,48
314,428	-1,47
314,797	-1,34
315,166	-1,27
315,535	-1,47
315,904	-1,66
316,272	-1,87
316,641	-1,87
317,01	-1,83
317,379	-1,57
317,747	-1,34
318,116	-1,28
318,484	-1,34
318,853	-1,31
319,221	-1,12
319,59	-1,06
319,958	-0,99
320,327	-0,84
320,695	-0,61
321,063	-0,42
321,432	-0,21
321,8	-0,17
322,168	-0,15
322,536	-0,2
322,905	-0,25
323,273	0,02
323,641	0,16
324,009	0,49
324,377	0,82
324,745	1,01
325,113	1,22
325,481	1,15
325,849	1
326,216	1,06
326,584	1,08
326,952	1,22
327,32	1,27
327,687	1,29
328,055	1,41
328,423	1,57
328,79	1,72
329,158	1,6
329,525	1,62
329,893	1,63
330,26	1,78
330,628	2
330,995	2,02
331,362	2,13
331,73	2,24
332,097	2,24
332,464	2,39
332,831	2,33
333,199	2,62
333,566	2,95
333,933	3,11
334,3	3,32
334,667	3,52
335,034	3,55
335,401	3,72
335,768	3,75
336,135	3,62
336,502	3,63
336,868	3,88
337,235	3,92
337,602	4,02
337,969	4,08
338,335	4,16
338,702	4,19
339,069	4,26
339,435	4,29
339,802	4,23
340,168	4,17
340,535	4,17
340,901	4,15
341,267	4,02
341,634	4,09
342	4,13
342,366	4,1
342,733	4,09
343,099	4,2
343,465	4,24
343,831	4,33
344,197	4,43
344,563	4,51
344,929	4,61
345,295	4,59
345,661	4,59
346,027	4,63
346,393	4,85
346,759	4,96
347,125	4,98
347,491	5,11
347,856	5,27
348,222	5,52
348,588	5,61
348,953	5,77
349,319	5,86
349,684	5,92
350,05	5,97
350,415	6,14
350,781	6,21
351,146	6,29
351,512	6,34
351,877	6,35
352,242	6,35
352,608	6,47
352,973	6,62
353,338	6,76
353,703	6,77
354,068	6,66
354,433	6,65
354,798	6,71
355,164	6,74
355,528	6,71
355,893	6,65
356,258	6,66
356,623	6,65
356,988	6,67
357,353	6,72
357,718	6,72
358,082	6,8
358,447	6,88
358,812	6,97
359,176	7,08
359,541	7,18
359,905	7,23
360,27	7,17
360,634	7,2
360,999	7,18
361,363	7,34
361,728	7,49
362,092	7,61
362,456	7,67
362,821	7,71
363,185	7,8
363,549	7,87
363,913	7,93
364,277	8,03
364,641	8,12
365,005	8,27
365,369	8,4
365,733	8,47
366,097	8,52
366,461	8,51
366,825	8,52
367,189	8,59
367,553	8,8
367,916	8,95
368,28	8,97
368,644	9,08
369,007	9,11
369,371	9,13
369,734	9,2
370,098	9,33
370,461	9,49
370,825	9,6
371,188	9,66
371,552	9,81
371,915	9,91
372,278	10,01
372,642	10,04
373,005	10,1
373,368	10,1
373,731	10,19
374,094	10,27
374,457	10,38
374,82	10,46
375,183	10,47
375,546	10,53
375,909	10,65
376,272	10,78
376,635	10,88
376,998	11
377,361	11,1
377,723	11,16
378,086	11,15
378,449	11,23
378,811	11,31
379,174	11,32
379,537	11,38
379,899	11,35
380,262	11,39
380,624	11,47
380,987	11,59
381,349	11,66
381,711	11,71
382,074	11,76
382,436	11,83
382,798	12
383,16	12,04
383,522	12,07
383,884	12,07
384,247	12,11
384,609	12,11
384,971	12,15
385,333	12,18
385,695	12,26
386,056	12,26
386,418	12,28
386,78	12,33
387,142	12,38
387,504	12,45
387,865	12,46
388,227	12,49
388,589	12,54
388,95	12,55
389,312	12,58
389,673	12,59
390,035	12,55
390,396	12,45
390,758	12,48
391,119	12,51
391,48	12,52
391,842	12,49
392,203	12,48
392,564	12,49
392,925	12,52
393,286	12,51
393,648	12,56
394,009	12,59
394,37	12,62
394,731	12,63
395,092	12,63
395,452	12,65
395,813	12,69
396,174	12,72
396,535	12,75
396,896	12,78
397,257	12,83
397,617	12,89
397,978	12,97
398,338	13,02
398,699	13,04
399,06	13,11
399,42	13,15
399,781	13,19
400,141	13,22
400,501	13,22
400,862	13,28
401,222	13,27
401,582	13,28
401,943	13,25
402,303	13,3
402,663	13,34
403,023	13,33
403,383	13,33
403,743	13,33
404,103	13,35
404,463	13,39
404,823	13,45
405,183	13,49
405,543	13,5
405,903	13,5
406,262	13,48
406,622	13,44
406,982	13,45
407,342	13,49
407,701	13,51
408,061	13,58
408,42	13,59
408,78	13,61
409,139	13,65
409,499	13,67
409,858	13,69
410,217	13,69
410,577	13,74
410,936	13,76
411,295	13,76
411,655	13,75
412,014	13,74
412,373	13,67
412,732	13,63
413,091	13,61
413,45	13,58
413,809	13,61
414,168	13,6
414,527	13,56
414,886	13,53
415,245	13,5
415,603	13,46
415,962	13,43
416,321	13,41
416,679	13,32
417,038	13,29
417,397	13,23
417,755	13,19
418,114	13,14
418,472	13,11
418,831	13,1
419,189	13,08
419,547	13,06
419,906	13,07
420,264	13,08
420,622	13,06
420,981	13,07
421,339	13,07
421,697	13,07
422,055	13,11
422,413	13,12
422,771	13,13
423,129	13,12
423,487	13,15
423,845	13,18
424,203	13,24
424,56	13,29
424,918	13,34
425,276	13,39
425,634	13,44
425,991	13,48
426,349	13,52
426,707	13,57
427,064	13,63
427,422	13,67
427,779	13,7
428,137	13,82
428,494	13,89
428,851	13,92
429,209	13,96
429,566	13,98
429,923	13,98
430,28	14,02
430,637	14,06
430,995	14,07
431,352	14,06
431,709	14,06
432,066	14,04
432,423	14,04
432,78	14,05
433,137	14,06
433,493	14,09
433,85	14,12
434,207	14,09
434,564	14,1
434,92	14,11
435,277	14,13
435,634	14,07
435,99	14,03
436,347	14,03
436,703	14,04
437,06	14,01
437,416	14,03
437,773	14
438,129	14,01
438,485	14,02
438,841	14,01
439,198	14,04
439,554	14,05
439,91	14,08
440,266	14,09
440,622	14,11
440,978	14,09
441,334	14,07
441,69	14,08
442,046	14,06
442,402	14,04
442,758	14,01
443,113	14,01
443,469	14,03
443,825	14,04
444,181	14,04
444,536	14,06
444,892	14,05
445,247	14,08
445,603	14,08
445,958	14,08
446,314	14,1
446,669	14,1
447,025	14,1
447,38	14,1
447,735	14,11
448,09	14,11
448,446	14,12
448,801	14,13
449,156	14,16
449,511	14,17
449,866	14,2
450,221	14,25
450,576	14,3
450,931	14,34
451,286	14,36
451,641	14,42
451,995	14,44
452,35	14,48
452,705	14,49
453,06	14,48
453,414	14,48
453,769	14,49
454,123	14,52
454,478	14,55
454,832	14,55
455,187	14,54
455,541	14,56
455,896	14,56
456,25	14,56
456,604	14,56
456,958	14,57
457,313	14,56
457,667	14,53
458,021	14,51
458,375	14,52
458,729	14,55
459,083	14,54
459,437	14,55
459,791	14,55
460,145	14,56
460,499	14,59
460,852	14,6
461,206	14,62
461,56	14,61
461,914	14,6
462,267	14,62
462,621	14,63
462,974	14,63
463,328	14,65
463,681	14,66
464,035	14,68
464,388	14,69
464,742	14,71
465,095	14,76
465,448	14,79
465,801	14,78
466,155	14,78
466,508	14,79
466,861	14,81
467,214	14,83
467,567	14,85
467,92	14,86
468,273	14,88
468,626	14,89
468,979	14,89
469,332	14,89
469,684	14,88
470,037	14,91
470,39	14,91
470,743	14,9
471,095	14,93
471,448	14,95
471,8	14,97
472,153	15
472,505	15,02
472,858	15,04
473,21	15,07
473,562	15,09
473,915	15,08
474,267	15,08
474,619	15,07
474,971	15,08
475,324	15,08
475,676	15,09
476,028	15,07
476,38	15,1
476,732	15,12
477,084	15,13
477,436	15,13
477,787	15,13
478,139	15,15
478,491	15,14
478,843	15,12
479,195	15,1
479,546	15,08
479,898	15,05
480,249	15,01
480,601	14,98
480,952	14,98
481,304	14,96
481,655	14,95
482,007	14,94
482,358	14,94
482,709	14,94
483,061	14,92
483,412	14,92
483,763	14,9
484,114	14,89
484,465	14,87
484,816	14,86
485,167	14,85
485,518	14,85
485,869	14,85
486,22	14,85
486,571	14,86
486,922	14,86
487,272	14,87
487,623	14,87
487,974	14,9
488,324	14,89
488,675	14,9
489,025	14,91
489,376	14,92
489,726	14,92
490,077	14,93
490,427	14,95
490,778	14,96
491,128	14,99
491,478	15,02
491,828	15,08
492,179	15,1
492,529	15,14
492,879	15,15
493,229	15,18
493,579	15,19
493,929	15,2
494,279	15,21
494,629	15,22
494,979	15,23
495,328	15,23
495,678	15,26
496,028	15,3
496,378	15,35
496,727	15,39
497,077	15,43
497,426	15,45
497,776	15,46
498,125	15,46
498,475	15,46
498,824	15,46
499,174	15,45
499,523	15,46
499,872	15,47
500,221	15,5
500,571	15,51
500,92	15,54
501,269	15,55
501,618	15,57
501,967	15,57
502,316	15,6
502,665	15,62
503,014	15,63
503,363	15,64
503,711	15,62
504,06	15,61
504,409	15,58
504,758	15,55
505,106	15,56
505,455	15,57
505,803	15,58
506,152	15,57
506,5	15,56
506,849	15,58
507,197	15,59
507,546	15,58
507,894	15,59
508,242	15,58
508,59	15,57
508,939	15,57
509,287	15,59
509,635	15,58
509,983	15,58
510,331	15,6
510,679	15,63
511,027	15,63
511,375	15,66
511,723	15,69
512,07	15,71
512,418	15,72
512,766	15,75
513,114	15,76
513,461	15,79
513,809	15,8
514,156	15,8
514,504	15,82
514,851	15,8
515,199	15,81
515,546	15,83
515,893	15,85
516,241	15,85
516,588	15,87
516,935	15,87
517,282	15,88
517,63	15,89
517,977	15,88
518,324	15,9
518,671	15,9
519,018	15,91
519,365	15,91
519,711	15,93
520,058	15,92
520,405	15,92
520,752	15,93
521,099	15,94
521,445	15,96
521,792	15,95
522,138	15,96
522,485	15,95
522,832	15,95
523,178	15,95
523,524	15,98
523,871	15,98
524,217	15,99
524,563	15,98
524,91	15,95
525,256	15,94
525,602	15,93
525,948	15,92
526,294	15,88
526,64	15,86
526,986	15,84
527,332	15,83
527,678	15,83
528,024	15,8
528,37	15,8
528,716	15,79
529,061	15,79
529,407	15,8
529,753	15,8
530,098	15,78
530,444	15,79
530,789	15,78
531,135	15,78
531,48	15,79
531,826	15,79
532,171	15,79
532,516	15,8
532,862	15,82
533,207	15,82
533,552	15,87
533,897	15,88
534,242	15,91
534,587	15,94
534,932	15,96
535,277	16
535,622	16
535,967	16,02
536,312	16,05
536,657	16,07
537,001	16,11
537,346	16,15
537,691	16,14
538,035	16,15
538,38	16,15
538,724	16,14
539,069	16,16
539,413	16,17
539,758	16,16
540,102	16,14
540,446	16,15
540,791	16,15
541,135	16,15
541,479	16,15
541,823	16,15
542,167	16,15
542,512	16,15
542,856	16,15
543,2	16,14
543,543	16,13
543,887	16,15
544,231	16,15
544,575	16,16
544,919	16,19
545,262	16,21
545,606	16,21
545,95	16,24
546,293	16,26
546,637	16,28
546,98	16,34
547,324	16,36
547,667	16,4
548,011	16,42
548,354	16,44
548,697	16,43
549,04	16,45
549,384	16,44
549,727	16,44
550,07	16,46
550,413	16,49
550,756	16,48
551,099	16,45
551,442	16,4
551,785	16,4
552,128	16,4
552,47	16,4
552,813	16,42
553,156	16,43
553,499	16,41
553,841	16,39
554,184	16,31
554,526	16,31
554,869	16,27
555,211	16,28
555,554	16,25
555,896	16,25
556,238	16,24
556,581	16,27
556,923	16,24
557,265	16,26
557,607	16,24
557,949	16,26
558,291	16,27
558,633	16,27
558,975	16,26
559,317	16,26
559,659	16,26
560,001	16,23
560,343	16,19
560,685	16,17
561,026	16,16
561,368	16,15
561,71	16,15
562,051	16,14
562,393	16,11
562,734	16,09
563,076	16,08
563,417	16,08
563,759	16,08
564,1	16,11
564,441	16,08
564,782	16,06
565,124	16,03
565,465	16,01
565,806	16,04
566,147	16,04
566,488	16,01
566,829	15,96
567,17	15,97
567,511	16,01
567,851	16,01
568,192	16
568,533	16
568,874	16
569,214	16
569,555	15,98
569,895	15,99
570,236	15,97
570,576	15,93
570,917	15,9
571,257	15,86
571,598	15,86
571,938	15,84
572,278	15,85
572,618	15,88
572,959	15,85
573,299	15,84
573,639	15,83
573,979	15,83
574,319	15,83
574,659	15,77
574,999	15,75
575,339	15,75
575,678	15,72
576,018	15,68
576,358	15,64
576,698	15,62
577,037	15,6
577,377	15,61
577,716	15,63
578,056	15,63
578,395	15,63
578,735	15,64
579,074	15,64
579,413	15,61
579,753	15,56
580,092	15,51
580,431	15,53
580,77	15,52
581,109	15,51
581,448	15,5
581,787	15,53
582,126	15,54
582,465	15,49
582,804	15,52
583,143	15,55
583,482	15,57
583,82	15,59
584,159	15,59
584,498	15,58
584,836	15,59
585,175	15,6
585,514	15,6
585,852	15,57
586,19	15,59
586,529	15,56
586,867	15,59
587,205	15,62
587,544	15,62
587,882	15,6
588,22	15,65
588,558	15,67
588,896	15,67
589,234	15,67
589,572	15,7
589,91	15,69
590,248	15,68
590,586	15,69
590,924	15,69
591,262	15,71
591,599	15,75
591,937	15,73
592,275	15,73
592,612	15,71
592,95	15,76
593,287	15,78
593,625	15,85
593,962	15,86
594,299	15,9
594,637	15,92
594,974	15,94
595,311	15,96
595,648	15,94
595,985	15,91
596,322	15,92
596,659	15,96
596,996	15,97
597,333	15,96
597,67	15,98
598,007	15,99
598,344	15,97
598,681	15,96
599,017	15,96
599,354	15,95
599,691	15,99
600,027	15,99
600,364	16,01
600,7	16,01
601,037	16,02
601,373	16,02
601,71	16,03
602,046	16,06
602,382	16,06
602,718	16,06
603,054	16,09
603,391	16,08
603,727	16,06
604,063	16,09
604,399	16,09
604,735	16,09
605,071	16,08
605,406	16,13
605,742	16,15
606,078	16,18
606,414	16,2
606,749	16,2
607,085	16,2
607,421	16,19
607,756	16,2
608,092	16,21
608,427	16,2
608,762	16,2
609,098	16,19
609,433	16,17
609,768	16,17
610,104	16,17
610,439	16,17
610,774	16,19
611,109	16,17
611,444	16,18
611,779	16,18
612,114	16,18
612,449	16,14
612,784	16,11
613,118	16,09
613,453	16,07
613,788	16,02
614,123	15,98
614,457	15,91
614,792	15,85
615,126	15,8
615,461	15,77
615,795	15,73
616,13	15,71
616,464	15,7
616,798	15,73
617,132	15,74
617,467	15,79
617,801	15,79
618,135	15,79
618,469	15,81
618,803	15,82
619,137	15,82
619,471	15,85
619,805	15,88
620,139	15,87
620,472	15,88
620,806	15,93
621,14	15,94
621,473	15,98
621,807	16
622,141	16,04
622,474	16,08
622,808	16,1
623,141	16,19
623,474	16,25
623,808	16,26
624,141	16,26
624,474	16,24
624,807	16,22
625,141	16,24
625,474	16,23
625,807	16,25
626,14	16,27
626,473	16,27
626,806	16,26
627,138	16,26
627,471	16,26
627,804	16,26
628,137	16,25
628,469	16,25
628,802	16,25
629,135	16,26
629,467	16,29
629,8	16,32
630,132	16,3
630,465	16,25
630,797	16,24
631,129	16,25
631,461	16,27
631,794	16,32
632,126	16,28
632,458	16,27
632,79	16,26
633,122	16,27
633,454	16,28
633,786	16,29
634,118	16,33
634,45	16,33
634,781	16,37
635,113	16,41
635,445	16,41
635,777	16,41
636,108	16,39
636,44	16,35
636,771	16,34
637,103	16,33
637,434	16,35
637,765	16,31
638,097	16,36
638,428	16,32
638,759	16,27
639,09	16,33
639,422	16,35
639,753	16,35
640,084	16,31
640,415	16,29
640,746	16,36
641,077	16,33
641,407	16,32
641,738	16,3
642,069	16,27
642,4	16,28
642,73	16,3
643,061	16,28
643,392	16,3
643,722	16,3
644,053	16,31
644,383	16,28
644,713	16,36
645,044	16,3
645,374	16,31
645,704	16,32
646,034	16,31
646,365	16,32
646,695	16,35
647,025	16,41
647,355	16,46
647,685	16,4
648,015	16,4
648,344	16,39
648,674	16,39
649,004	16,39
