Data from zc74042_2_Reflection_00002.txt Node
Date: Thu Mar 12 14:49:40 ART 2020
User: Ana
Spectrometer: USB2E3644
Trigger mode: 4
Integration Time (sec): 5,000000E-2
Scans to average: 10
Electric dark correction enabled: true
Nonlinearity correction enabled: false
Boxcar width: 10
XAxis mode: Wavelengths
Number of Pixels in Spectrum: 2048
>>>>>Begin Spectral Data<<<<<
178,315	80,6
178,696	72,15
179,076	57,9
179,457	45,14
179,838	44,95
180,218	39,49
180,599	6,41
180,979	96,43
181,36	22,87
181,74	70,68
182,121	89,24
182,501	99,85
182,881	92,75
183,262	89,8
183,642	92,02
184,022	94,49
184,402	100,34
184,783	103,35
185,163	105,39
185,543	103,39
185,923	102,57
186,303	101,89
186,683	101,01
187,063	100,21
187,443	99,22
187,823	99,73
188,203	102,46
188,583	105,74
188,963	109,96
189,343	115,5
189,723	115,24
190,102	115,93
190,482	121,29
190,862	126,53
191,242	129,16
191,621	128,73
192,001	127,71
192,38	123,97
192,76	122,83
193,14	123,77
193,519	123,88
193,898	124,65
194,278	125,41
194,657	125,43
195,037	125,98
195,416	127,51
195,795	127,5
196,175	126,69
196,554	126,01
196,933	124,59
197,312	123,08
197,692	121,54
198,071	119,48
198,45	116,15
198,829	114,27
199,208	114,19
199,587	114,56
199,966	114,03
200,345	114,14
200,724	113,32
201,103	111,86
201,482	111,5
201,86	111,4
202,239	111,18
202,618	111,28
202,997	111,32
203,375	110,05
203,754	109,53
204,133	108,68
204,511	107,65
204,89	106,49
205,269	106,03
205,647	108,09
206,026	110,1
206,404	111,73
206,782	112,33
207,161	112,56
207,539	112,48
207,918	114,07
208,296	114,63
208,674	115,24
209,052	115,38
209,431	115,51
209,809	114,34
210,187	112,63
210,565	111,07
210,943	110,16
211,321	111,52
211,699	112,5
212,077	113,88
212,455	115,53
212,833	115,82
213,211	116,25
213,589	116,06
213,967	115,21
214,345	114,27
214,722	113,77
215,1	114,28
215,478	114,69
215,855	113,91
216,233	115,38
216,611	117,78
216,988	119,54
217,366	120,45
217,743	121,21
218,121	123,54
218,498	126,89
218,876	129,45
219,253	130,39
219,631	132,3
220,008	133,4
220,385	133,82
220,762	134,25
221,14	136,09
221,517	136,15
221,894	136,43
222,271	139,98
222,648	143,61
223,025	144,62
223,402	146,3
223,78	148,2
224,157	149,04
224,533	147,73
224,91	147,1
225,287	147,93
225,664	152,15
226,041	157,42
226,418	159,9
226,795	159,19
227,171	160,98
227,548	163,93
227,925	166,82
228,301	169,66
228,678	173,42
229,055	173,2
229,431	174,66
229,808	178,45
230,184	178,72
230,561	178,18
230,937	180,5
231,313	182,13
231,69	182,77
232,066	179,67
232,442	179,02
232,819	182,32
233,195	182,4
233,571	184,21
233,947	184,85
234,323	184,64
234,699	189,09
235,075	190,84
235,451	191,31
235,827	192,6
236,203	195,08
236,579	199,77
236,955	209,96
237,331	222,06
237,707	237,55
238,083	264,69
238,459	316,05
238,834	401,9
239,21	571,97
239,586	908,78
239,961	1866,97
240,337	5765,74
240,713	-11553,7
241,088	-3274,48
241,464	-2388,26
241,839	-1792,94
242,215	-1083,67
242,59	-634,41
242,965	-351,56
243,341	-210,1
243,716	-142,59
244,091	-112,98
244,467	-97,56
244,842	-88,25
245,217	-80,89
245,592	-76,41
245,967	-76,94
246,343	-76,69
246,718	-76,63
247,093	-79,04
247,468	-80,94
247,843	-80,33
248,218	-77,27
248,593	-72,49
248,967	-66,83
249,342	-63,55
249,717	-61,86
250,092	-61,28
250,467	-62,56
250,841	-67,38
251,216	-76,8
251,591	-91,78
251,965	-105,49
252,34	-116,43
252,714	-127,9
253,089	-136,94
253,463	-144,53
253,838	-142,85
254,212	-137,9
254,587	-129,8
254,961	-114,63
255,335	-99,61
255,71	-83,82
256,084	-66,48
256,458	-53,81
256,832	-45,97
257,206	-41,58
257,581	-39,28
257,955	-37,6
258,329	-36,09
258,703	-34,21
259,077	-32,84
259,451	-31,39
259,825	-30,65
260,199	-30,67
260,572	-30,43
260,946	-30,44
261,32	-30,26
261,694	-29,76
262,068	-29,36
262,441	-28,93
262,815	-28,57
263,189	-27,88
263,562	-28,07
263,936	-30,31
264,309	-33,79
264,683	-37,01
265,056	-38,86
265,43	-39,76
265,803	-40,06
266,176	-39,62
266,55	-39,36
266,923	-38,57
267,296	-37,42
267,67	-35,56
268,043	-33,88
268,416	-31,54
268,789	-29,72
269,162	-28,16
269,535	-26,37
269,908	-25,14
270,281	-24,54
270,654	-24,71
271,027	-25,63
271,4	-26,15
271,773	-26,1
272,146	-25,9
272,519	-25,96
272,891	-26,1
273,264	-26,18
273,637	-26,03
274,01	-26,01
274,382	-26,46
274,755	-26,9
275,127	-27,55
275,5	-28,27
275,872	-28,17
276,245	-28,42
276,617	-28,7
276,99	-28,5
277,362	-29,01
277,734	-28,94
278,107	-28,5
278,479	-28,07
278,851	-27,57
279,223	-27,09
279,596	-26,8
279,968	-26,77
280,34	-26,5
280,712	-25,61
281,084	-24,28
281,456	-22,96
281,828	-21,62
282,2	-20,03
282,572	-18,75
282,944	-17,69
283,315	-17
283,687	-16,64
284,059	-16,48
284,431	-16,22
284,802	-15,85
285,174	-15,48
285,546	-15,23
285,917	-14,9
286,289	-14,56
286,66	-14,29
287,032	-13,96
287,403	-13,68
287,775	-13,45
288,146	-13,44
288,518	-13,6
288,889	-13,53
289,26	-13,67
289,632	-14,08
290,003	-14,61
290,374	-14,96
290,745	-15,1
291,116	-15,09
291,487	-15,12
291,858	-15,04
292,229	-15,08
292,6	-15,2
292,971	-14,72
293,342	-14,24
293,713	-13,58
294,084	-12,87
294,455	-12,21
294,826	-11,78
295,196	-11,57
295,567	-11,64
295,938	-11,52
296,308	-11,33
296,679	-11,33
297,05	-11,14
297,42	-10,86
297,791	-10,57
298,161	-10,48
298,532	-10,37
298,902	-10,13
299,272	-9,98
299,643	-9,96
300,013	-9,62
300,383	-9,33
300,754	-9,41
301,124	-9,59
301,494	-9,88
301,864	-10,13
302,234	-10,36
302,604	-10,5
302,974	-10,57
303,344	-10,39
303,714	-10,12
304,084	-9,82
304,454	-9,65
304,824	-9,68
305,194	-9,65
305,563	-9,61
305,933	-9,37
306,303	-9,14
306,673	-8,94
307,042	-8,5
307,412	-7,85
307,781	-7,34
308,151	-7,02
308,521	-6,89
308,89	-6,66
309,259	-6,74
309,629	-6,87
309,998	-6,93
310,368	-7
310,737	-6,93
311,106	-6,72
311,475	-6,54
311,845	-6,57
312,214	-6,52
312,583	-6,4
312,952	-6,37
313,321	-6,34
313,69	-6,25
314,059	-6,23
314,428	-6,35
314,797	-6,54
315,166	-6,86
315,535	-7,23
315,904	-7,6
316,272	-7,9
316,641	-8,17
317,01	-8,08
317,379	-7,93
317,747	-7,65
318,116	-7,34
318,484	-7,11
318,853	-7,08
319,221	-7,09
319,59	-7,08
319,958	-6,88
320,327	-6,72
320,695	-6,49
321,063	-6,23
321,432	-6,04
321,8	-5,8
322,168	-5,62
322,536	-5,55
322,905	-5,21
323,273	-4,82
323,641	-4,47
324,009	-4,12
324,377	-3,84
324,745	-3,54
325,113	-3,21
325,481	-2,9
325,849	-2,64
326,216	-2,47
326,584	-2,3
326,952	-2,17
327,32	-1,89
327,687	-1,75
328,055	-1,49
328,423	-1,32
328,79	-1,24
329,158	-1,19
329,525	-1,19
329,893	-1,03
330,26	-0,82
330,628	-0,8
330,995	-0,89
331,362	-0,98
331,73	-1,02
332,097	-0,99
332,464	-1,02
332,831	-1,02
333,199	-1,08
333,566	-1,09
333,933	-1,03
334,3	-0,96
334,667	-0,96
335,034	-0,97
335,401	-0,97
335,768	-1,03
336,135	-1,05
336,502	-0,93
336,868	-0,84
337,235	-0,76
337,602	-0,68
337,969	-0,64
338,335	-0,55
338,702	-0,42
339,069	-0,29
339,435	-0,23
339,802	-0,15
340,168	-0,1
340,535	-0,05
340,901	-0,02
341,267	-0,01
341,634	0,09
342	0,18
342,366	0,32
342,733	0,35
343,099	0,41
343,465	0,42
343,831	0,38
344,197	0,31
344,563	0,29
344,929	0,31
345,295	0,39
345,661	0,54
346,027	0,61
346,393	0,63
346,759	0,71
347,125	0,77
347,491	0,79
347,856	0,79
348,222	0,78
348,588	0,9
348,953	1,01
349,319	0,92
349,684	0,92
350,05	0,97
350,415	1,06
350,781	1,14
351,146	1,28
351,512	1,45
351,877	1,57
352,242	1,65
352,608	1,78
352,973	1,82
353,338	1,85
353,703	1,94
354,068	1,95
354,433	2,01
354,798	2,15
355,164	2,23
355,528	2,36
355,893	2,47
356,258	2,47
356,623	2,54
356,988	2,72
357,353	2,84
357,718	2,92
358,082	2,97
358,447	3,03
358,812	3,11
359,176	3,21
359,541	3,31
359,905	3,37
360,27	3,36
360,634	3,4
360,999	3,48
361,363	3,52
361,728	3,6
362,092	3,65
362,456	3,66
362,821	3,73
363,185	3,79
363,549	3,87
363,913	3,92
364,277	3,96
364,641	3,96
365,005	4
365,369	4,07
365,733	4,15
366,097	4,18
366,461	4,22
366,825	4,29
367,189	4,35
367,553	4,49
367,916	4,69
368,28	4,8
368,644	4,85
369,007	4,93
369,371	5,05
369,734	5,15
370,098	5,25
370,461	5,38
370,825	5,45
371,188	5,48
371,552	5,56
371,915	5,61
372,278	5,73
372,642	5,83
373,005	5,92
373,368	6,01
373,731	6,17
374,094	6,27
374,457	6,32
374,82	6,41
375,183	6,48
375,546	6,51
375,909	6,56
376,272	6,63
376,635	6,72
376,998	6,79
377,361	6,87
377,723	6,98
378,086	7,04
378,449	7,09
378,811	7,18
379,174	7,27
379,537	7,37
379,899	7,41
380,262	7,45
380,624	7,47
380,987	7,51
381,349	7,54
381,711	7,59
382,074	7,68
382,436	7,76
382,798	7,86
383,16	7,89
383,522	7,95
383,884	8
384,247	8,02
384,609	8,06
384,971	8,05
385,333	8,02
385,695	8,04
386,056	8,08
386,418	8,06
386,78	8,07
387,142	8,07
387,504	8,08
387,865	8,12
388,227	8,14
388,589	8,17
388,95	8,23
389,312	8,25
389,673	8,26
390,035	8,26
390,396	8,22
390,758	8,27
391,119	8,29
391,48	8,33
391,842	8,38
392,203	8,4
392,564	8,46
392,925	8,52
393,286	8,53
393,648	8,58
394,009	8,64
394,37	8,68
394,731	8,74
395,092	8,79
395,452	8,81
395,813	8,87
396,174	8,89
396,535	8,9
396,896	8,9
397,257	8,93
397,617	8,98
397,978	9,04
398,338	9,05
398,699	9,08
399,06	9,11
399,42	9,11
399,781	9,11
400,141	9,12
400,501	9,13
400,862	9,14
401,222	9,12
401,582	9,12
401,943	9,14
402,303	9,15
402,663	9,16
403,023	9,16
403,383	9,18
403,743	9,17
404,103	9,16
404,463	9,2
404,823	9,24
405,183	9,25
405,543	9,27
405,903	9,28
406,262	9,27
406,622	9,24
406,982	9,24
407,342	9,25
407,701	9,26
408,061	9,28
408,42	9,27
408,78	9,3
409,139	9,3
409,499	9,29
409,858	9,27
410,217	9,26
410,577	9,26
410,936	9,24
411,295	9,26
411,655	9,26
412,014	9,25
412,373	9,21
412,732	9,19
413,091	9,15
413,45	9,1
413,809	9,09
414,168	9,06
414,527	9,02
414,886	8,97
415,245	8,9
415,603	8,87
415,962	8,85
416,321	8,83
416,679	8,8
417,038	8,77
417,397	8,74
417,755	8,7
418,114	8,68
418,472	8,67
418,831	8,66
419,189	8,66
419,547	8,65
419,906	8,63
420,264	8,6
420,622	8,58
420,981	8,58
421,339	8,56
421,697	8,56
422,055	8,57
422,413	8,6
422,771	8,63
423,129	8,63
423,487	8,64
423,845	8,66
424,203	8,67
424,56	8,7
424,918	8,73
425,276	8,76
425,634	8,8
425,991	8,82
426,349	8,84
426,707	8,88
427,064	8,91
427,422	8,93
427,779	8,99
428,137	9,04
428,494	9,08
428,851	9,15
429,209	9,19
429,566	9,19
429,923	9,18
430,28	9,19
430,637	9,21
430,995	9,21
431,352	9,2
431,709	9,21
432,066	9,21
432,423	9,22
432,78	9,22
433,137	9,23
433,493	9,2
433,85	9,22
434,207	9,19
434,564	9,16
434,92	9,15
435,277	9,14
435,634	9,15
435,99	9,13
436,347	9,13
436,703	9,14
437,06	9,14
437,416	9,14
437,773	9,12
438,129	9,1
438,485	9,11
438,841	9,1
439,198	9,1
439,554	9,09
439,91	9,09
440,266	9,1
440,622	9,1
440,978	9,1
441,334	9,08
441,69	9,07
442,046	9,07
442,402	9,07
442,758	9,07
443,113	9,04
443,469	9,05
443,825	9,03
444,181	9,04
444,536	9,05
444,892	9,05
445,247	9,07
445,603	9,09
445,958	9,1
446,314	9,12
446,669	9,14
447,025	9,16
447,38	9,16
447,735	9,17
448,09	9,17
448,446	9,18
448,801	9,2
449,156	9,23
449,511	9,27
449,866	9,3
450,221	9,35
450,576	9,4
450,931	9,45
451,286	9,5
451,641	9,52
451,995	9,56
452,35	9,62
452,705	9,63
453,06	9,63
453,414	9,66
453,769	9,67
454,123	9,69
454,478	9,69
454,832	9,69
455,187	9,66
455,541	9,66
455,896	9,67
456,25	9,65
456,604	9,63
456,958	9,62
457,313	9,59
457,667	9,56
458,021	9,56
458,375	9,55
458,729	9,57
459,083	9,59
459,437	9,58
459,791	9,55
460,145	9,57
460,499	9,58
460,852	9,56
461,206	9,58
461,56	9,58
461,914	9,58
462,267	9,59
462,621	9,61
462,974	9,61
463,328	9,64
463,681	9,65
464,035	9,68
464,388	9,7
464,742	9,73
465,095	9,74
465,448	9,76
465,801	9,75
466,155	9,74
466,508	9,73
466,861	9,73
467,214	9,75
467,567	9,75
467,92	9,75
468,273	9,76
468,626	9,75
468,979	9,74
469,332	9,75
469,684	9,75
470,037	9,76
470,39	9,78
470,743	9,77
471,095	9,79
471,448	9,79
471,8	9,8
472,153	9,83
472,505	9,83
472,858	9,85
473,21	9,88
473,562	9,88
473,915	9,9
474,267	9,9
474,619	9,89
474,971	9,89
475,324	9,88
475,676	9,9
476,028	9,91
476,38	9,92
476,732	9,9
477,084	9,9
477,436	9,9
477,787	9,9
478,139	9,91
478,491	9,91
478,843	9,91
479,195	9,89
479,546	9,84
479,898	9,78
480,249	9,68
480,601	9,64
480,952	9,61
481,304	9,6
481,655	9,61
482,007	9,61
482,358	9,61
482,709	9,61
483,061	9,6
483,412	9,59
483,763	9,59
484,114	9,58
484,465	9,57
484,816	9,56
485,167	9,56
485,518	9,55
485,869	9,56
486,22	9,56
486,571	9,56
486,922	9,57
487,272	9,6
487,623	9,64
487,974	9,66
488,324	9,67
488,675	9,68
489,025	9,67
489,376	9,68
489,726	9,68
490,077	9,7
490,427	9,71
490,778	9,73
491,128	9,75
491,478	9,77
491,828	9,81
492,179	9,83
492,529	9,85
492,879	9,87
493,229	9,88
493,579	9,88
493,929	9,89
494,279	9,9
494,629	9,9
494,979	9,9
495,328	9,94
495,678	9,97
496,028	10,01
496,378	10,04
496,727	10,06
497,077	10,09
497,426	10,11
497,776	10,12
498,125	10,12
498,475	10,11
498,824	10,11
499,174	10,11
499,523	10,11
499,872	10,14
500,221	10,15
500,571	10,15
500,92	10,16
501,269	10,18
501,618	10,2
501,967	10,22
502,316	10,24
502,665	10,22
503,014	10,22
503,363	10,21
503,711	10,21
504,06	10,21
504,409	10,2
504,758	10,18
505,106	10,18
505,455	10,18
505,803	10,19
506,152	10,2
506,5	10,21
506,849	10,23
507,197	10,2
507,546	10,21
507,894	10,22
508,242	10,23
508,59	10,23
508,939	10,22
509,287	10,22
509,635	10,22
509,983	10,26
510,331	10,28
510,679	10,31
511,027	10,33
511,375	10,33
511,723	10,35
512,07	10,37
512,418	10,41
512,766	10,44
513,114	10,45
513,461	10,47
513,809	10,48
514,156	10,48
514,504	10,48
514,851	10,46
515,199	10,45
515,546	10,45
515,893	10,44
516,241	10,46
516,588	10,45
516,935	10,47
517,282	10,47
517,63	10,49
517,977	10,48
518,324	10,48
518,671	10,48
519,018	10,47
519,365	10,46
519,711	10,46
520,058	10,46
520,405	10,46
520,752	10,47
521,099	10,47
521,445	10,49
521,792	10,52
522,138	10,52
522,485	10,52
522,832	10,52
523,178	10,53
523,524	10,54
523,871	10,54
524,217	10,51
524,563	10,48
524,91	10,42
525,256	10,39
525,602	10,39
525,948	10,4
526,294	10,42
526,64	10,41
526,986	10,41
527,332	10,4
527,678	10,4
528,024	10,4
528,37	10,4
528,716	10,39
529,061	10,39
529,407	10,4
529,753	10,39
530,098	10,38
530,444	10,38
530,789	10,37
531,135	10,37
531,48	10,38
531,826	10,39
532,171	10,42
532,516	10,45
532,862	10,46
533,207	10,46
533,552	10,44
533,897	10,45
534,242	10,42
534,587	10,43
534,932	10,44
535,277	10,45
535,622	10,45
535,967	10,47
536,312	10,49
536,657	10,5
537,001	10,53
537,346	10,55
537,691	10,58
538,035	10,58
538,38	10,58
538,724	10,6
539,069	10,59
539,413	10,59
539,758	10,6
540,102	10,6
540,446	10,6
540,791	10,62
541,135	10,62
541,479	10,64
541,823	10,66
542,167	10,66
542,512	10,67
542,856	10,65
543,2	10,64
543,543	10,64
543,887	10,64
544,231	10,66
544,575	10,67
544,919	10,68
545,262	10,71
545,606	10,73
545,95	10,73
546,293	10,76
546,637	10,78
546,98	10,79
547,324	10,81
547,667	10,86
548,011	10,87
548,354	10,87
548,697	10,89
549,04	10,88
549,384	10,87
549,727	10,86
550,07	10,89
550,413	10,9
550,756	10,9
551,099	10,9
551,442	10,89
551,785	10,89
552,128	10,9
552,47	10,89
552,813	10,9
553,156	10,9
553,499	10,89
553,841	10,88
554,184	10,88
554,526	10,88
554,869	10,81
555,211	10,79
555,554	10,78
555,896	10,75
556,238	10,72
556,581	10,71
556,923	10,69
557,265	10,69
557,607	10,67
557,949	10,66
558,291	10,63
558,633	10,62
558,975	10,6
559,317	10,57
559,659	10,55
560,001	10,54
560,343	10,53
560,685	10,5
561,026	10,48
561,368	10,45
561,71	10,42
562,051	10,4
562,393	10,4
562,734	10,36
563,076	10,38
563,417	10,39
563,759	10,37
564,1	10,37
564,441	10,36
564,782	10,34
565,124	10,32
565,465	10,33
565,806	10,31
566,147	10,29
566,488	10,27
566,829	10,27
567,17	10,26
567,511	10,23
567,851	10,24
568,192	10,23
568,533	10,22
568,874	10,22
569,214	10,23
569,555	10,19
569,895	10,2
570,236	10,17
570,576	10,15
570,917	10,13
571,257	10,1
571,598	10,07
571,938	10,07
572,278	10,08
572,618	10,06
572,959	10,08
573,299	10,07
573,639	10,06
573,979	10,03
574,319	10,02
574,659	10,03
574,999	10
575,339	9,99
575,678	9,98
576,018	9,97
576,358	9,97
576,698	9,96
577,037	9,96
577,377	9,95
577,716	9,93
578,056	9,93
578,395	9,91
578,735	9,92
579,074	9,89
579,413	9,86
579,753	9,82
580,092	9,78
580,431	9,76
580,77	9,76
581,109	9,75
581,448	9,72
581,787	9,69
582,126	9,66
582,465	9,64
582,804	9,61
583,143	9,59
583,482	9,6
583,82	9,61
584,159	9,58
584,498	9,59
584,836	9,6
585,175	9,59
585,514	9,64
585,852	9,65
586,19	9,64
586,529	9,64
586,867	9,65
587,205	9,66
587,544	9,68
587,882	9,69
588,22	9,71
588,558	9,73
588,896	9,75
589,234	9,77
589,572	9,77
589,91	9,78
590,248	9,74
590,586	9,7
590,924	9,69
591,262	9,72
591,599	9,7
591,937	9,7
592,275	9,7
592,612	9,7
592,95	9,7
593,287	9,73
593,625	9,75
593,962	9,79
594,299	9,82
594,637	9,86
594,974	9,88
595,311	9,9
595,648	9,91
595,985	9,92
596,322	9,93
596,659	9,98
596,996	10,01
597,333	10,04
597,67	10,05
598,007	10,05
598,344	10,06
598,681	10,09
599,017	10,08
599,354	10,08
599,691	10,08
600,027	10,09
600,364	10,08
600,7	10,09
601,037	10,09
601,373	10,09
601,71	10,11
602,046	10,1
602,382	10,09
602,718	10,12
603,054	10,12
603,391	10,11
603,727	10,1
604,063	10,09
604,399	10,13
604,735	10,17
605,071	10,2
605,406	10,19
605,742	10,22
606,078	10,25
606,414	10,28
606,749	10,32
607,085	10,33
607,421	10,34
607,756	10,35
608,092	10,36
608,427	10,37
608,762	10,33
609,098	10,32
609,433	10,32
609,768	10,31
610,104	10,31
610,439	10,28
610,774	10,27
611,109	10,25
611,444	10,24
611,779	10,2
612,114	10,19
612,449	10,18
612,784	10,16
613,118	10,14
613,453	10,12
613,788	10,05
614,123	10,01
614,457	9,98
614,792	9,95
615,126	9,92
615,461	9,89
615,795	9,91
616,13	9,9
616,464	9,86
616,798	9,83
617,132	9,82
617,467	9,83
617,801	9,85
618,135	9,9
618,469	9,9
618,803	9,94
619,137	9,96
619,471	9,99
619,805	9,97
620,139	9,96
620,472	9,96
620,806	9,99
621,14	10
621,473	9,99
621,807	9,99
622,141	9,98
622,474	9,94
622,808	9,89
623,141	9,89
623,474	9,93
623,808	9,98
624,141	10,03
624,474	10,11
624,807	10,11
625,141	10,1
625,474	10,13
625,807	10,14
626,14	10,11
626,473	10,11
626,806	10,15
627,138	10,17
627,471	10,15
627,804	10,15
628,137	10,17
628,469	10,18
628,802	10,19
629,135	10,17
629,467	10,2
629,8	10,23
630,132	10,23
630,465	10,23
630,797	10,2
631,129	10,18
631,461	10,16
631,794	10,16
632,126	10,17
632,458	10,15
632,79	10,14
633,122	10,17
633,454	10,2
633,786	10,22
634,118	10,21
634,45	10,26
634,781	10,24
635,113	10,22
635,445	10,23
635,777	10,26
636,108	10,28
636,44	10,28
636,771	10,29
637,103	10,31
637,434	10,32
637,765	10,33
638,097	10,32
638,428	10,31
638,759	10,32
639,09	10,31
639,422	10,3
639,753	10,26
640,084	10,22
640,415	10,18
640,746	10,16
641,077	10,17
641,407	10,18
641,738	10,19
642,069	10,2
642,4	10,21
642,73	10,23
643,061	10,28
643,392	10,31
643,722	10,29
644,053	10,32
644,383	10,32
644,713	10,34
645,044	10,36
645,374	10,37
645,704	10,35
646,034	10,35
646,365	10,35
646,695	10,37
647,025	10,43
647,355	10,45
647,685	10,43
648,015	10,46
648,344	10,44
648,674	10,46
649,004	10,5
649,334	10,49
649,663	10,48
649,993	10,46
650,323	10,47
650,652	10,51
650,982	10,55
651,311	10,55
651,64	10,52
651,97	10,51
652,299	10,47
652,628	10,48
652,958	10,46
653,287	10,5
653,616	10,52
653,945	10,5
654,274	10,48
654,603	10,48
654,932	10,47
655,261	10,49
655,589	10,51
655,918	10,5
656,247	10,54
