Data from zc74019_4_Reflection_00002.txt Node
Date: Thu Mar 12 14:43:28 ART 2020
User: Ana
Spectrometer: USB2E3644
Trigger mode: 4
Integration Time (sec): 5,000000E-2
Scans to average: 10
Electric dark correction enabled: true
Nonlinearity correction enabled: false
Boxcar width: 10
XAxis mode: Wavelengths
Number of Pixels in Spectrum: 2048
>>>>>Begin Spectral Data<<<<<
178,315	96,32
178,696	83,78
179,076	64,98
179,457	54,44
179,838	50
180,218	58,73
180,599	3,33
180,979	55,17
181,36	23,33
181,74	102,38
182,121	132,69
182,501	153,77
182,881	167,81
183,262	154,85
183,642	151,14
184,022	149,37
184,402	150,85
184,783	151,28
185,163	145,39
185,543	140,45
185,923	139,35
186,303	136,91
186,683	134,9
187,063	133,16
187,443	135,03
187,823	144,13
188,203	153,86
188,583	156,93
188,963	155,09
189,343	153,3
189,723	151,36
190,102	149,61
190,482	144,84
190,862	142,77
191,242	143,33
191,621	142,72
192,001	139,89
192,38	137,63
192,76	134,07
193,14	130,55
193,519	129,75
193,898	130,14
194,278	130,75
194,657	129,56
195,037	128,94
195,416	127,97
195,795	126,36
196,175	125,32
196,554	124,58
196,933	125,1
197,312	125,85
197,692	126,01
198,071	125,23
198,45	124,34
198,829	125,93
199,208	126,76
199,587	126,36
199,966	124,64
200,345	123
200,724	122,99
201,103	124,31
201,482	124,24
201,86	122,47
202,239	120,19
202,618	118,5
202,997	116,25
203,375	113,55
203,754	111,61
204,133	110,11
204,511	107,79
204,89	106,84
205,269	106,25
205,647	105,45
206,026	106,22
206,404	109,44
206,782	110,38
207,161	110,64
207,539	110,88
207,918	111,39
208,296	111,18
208,674	111,74
209,052	113,85
209,431	116,76
209,809	120,49
210,187	124,02
210,565	126,51
210,943	128,07
211,321	130,66
211,699	131,05
212,077	130,3
212,455	132,6
212,833	134,66
213,211	134,57
213,589	137,44
213,967	137,87
214,345	133,52
214,722	127,64
215,1	125,83
215,478	125,76
215,855	127,95
216,233	128,94
216,611	126,87
216,988	123,11
217,366	119,34
217,743	118,38
218,121	118,31
218,498	118,2
218,876	118,41
219,253	117,54
219,631	119,2
220,008	121,19
220,385	121,71
220,762	120,57
221,14	121,12
221,517	118,47
221,894	116,91
222,271	118,44
222,648	123,74
223,025	127,01
223,402	127,25
223,78	125,33
224,157	125,66
224,533	129,4
224,91	135,75
225,287	142,62
225,664	148,08
226,041	154,05
226,418	160,71
226,795	168,47
227,171	178,72
227,548	183,33
227,925	184,14
228,301	188,08
228,678	191,3
229,055	193,12
229,431	199,14
229,808	203,18
230,184	204,77
230,561	209,52
230,937	218,5
231,313	229,94
231,69	235,65
232,066	240,2
232,442	232,01
232,819	225,58
233,195	221,41
233,571	220,85
233,947	216,67
234,323	215,99
234,699	215,21
235,075	214,44
235,451	221,96
235,827	233,12
236,203	246,43
236,579	263,24
236,955	284,56
237,331	308,06
237,707	355,08
238,083	436,51
238,459	573,48
238,834	1010,22
239,21	6216,67
239,586	-1419,23
239,961	-814,6
240,337	-585,76
240,713	-504,1
241,088	-462,88
241,464	-428,4
241,839	-388,35
242,215	-322,98
242,59	-254,26
242,965	-176,78
243,341	-121,6
243,716	-88,46
244,091	-73,3
244,467	-64,85
244,842	-58,13
245,217	-53,74
245,592	-52,02
245,967	-52,69
246,343	-52,42
246,718	-51,91
247,093	-52,81
247,468	-54,13
247,843	-53,56
248,218	-51,25
248,593	-47,47
248,967	-43,86
249,342	-42,11
249,717	-40,94
250,092	-40,71
250,467	-41,8
250,841	-44,89
251,216	-50,65
251,591	-58,39
251,965	-64,72
252,34	-69,72
252,714	-76,75
253,089	-80,83
253,463	-82,27
253,838	-80,49
254,212	-77,77
254,587	-75,79
254,961	-69,63
255,335	-60,82
255,71	-51,55
256,084	-41,64
256,458	-35,03
256,832	-30,42
257,206	-27,69
257,581	-26,27
257,955	-25,02
258,329	-23,58
258,703	-22,35
259,077	-21,27
259,451	-20,49
259,825	-20,26
260,199	-20,55
260,572	-20,13
260,946	-20,01
261,32	-19,82
261,694	-19,51
262,068	-19,27
262,441	-18,86
262,815	-18,83
263,189	-18,62
263,562	-18,95
263,936	-20,7
264,309	-22,89
264,683	-25,18
265,056	-26,42
265,43	-27
265,803	-27,15
266,176	-27,08
266,55	-26,87
266,923	-26,68
267,296	-26,14
267,67	-25,03
268,043	-23,85
268,416	-22,7
268,789	-21,28
269,162	-19,93
269,535	-18,81
269,908	-18,2
270,281	-17,86
270,654	-17,94
271,027	-18,62
271,4	-18,9
271,773	-18,82
272,146	-18,64
272,519	-18,51
272,891	-18,5
273,264	-18,27
273,637	-18,13
274,01	-17,81
274,382	-18,08
274,755	-18,25
275,127	-18,27
275,5	-18,46
275,872	-18,66
276,245	-18,8
276,617	-19,37
276,99	-19,73
277,362	-20,1
277,734	-20,06
278,107	-19,65
278,479	-18,93
278,851	-18,41
279,223	-18,2
279,596	-18,13
279,968	-18,18
280,34	-18,13
280,712	-17,65
281,084	-17,06
281,456	-16,3
281,828	-15,6
282,2	-14,49
282,572	-13,31
282,944	-12,5
283,315	-12,04
283,687	-11,56
284,059	-11,39
284,431	-11,21
284,802	-11,01
285,174	-10,65
285,546	-10,28
285,917	-9,95
286,289	-9,7
286,66	-9,44
287,032	-9,1
287,403	-8,68
287,775	-8,33
288,146	-8,27
288,518	-8,33
288,889	-8,23
289,26	-8,35
289,632	-8,61
290,003	-8,87
290,374	-9,13
290,745	-9,22
291,116	-9,16
291,487	-9,01
291,858	-8,68
292,229	-8,48
292,6	-8,32
292,971	-8,04
293,342	-7,81
293,713	-7,35
294,084	-6,97
294,455	-6,5
294,826	-6,24
295,196	-6,35
295,567	-6,55
295,938	-6,38
296,308	-6,1
296,679	-5,86
297,05	-5,54
297,42	-5,14
297,791	-4,77
298,161	-4,68
298,532	-4,51
298,902	-4,42
299,272	-4,44
299,643	-4,39
300,013	-4,05
300,383	-3,78
300,754	-3,74
301,124	-3,78
301,494	-3,99
301,864	-4,21
302,234	-4,44
302,604	-4,36
302,974	-4,15
303,344	-3,83
303,714	-3,55
304,084	-3,21
304,454	-3,16
304,824	-3,11
305,194	-3,25
305,563	-3,36
305,933	-3,28
306,303	-3,17
306,673	-2,91
307,042	-2,51
307,412	-2,28
307,781	-2,09
308,151	-1,98
308,521	-1,77
308,89	-1,46
309,259	-1,4
309,629	-1,28
309,998	-1,1
310,368	-0,98
310,737	-0,83
311,106	-0,85
311,475	-0,93
311,845	-1,13
312,214	-1,09
312,583	-1,06
312,952	-1,06
313,321	-0,96
313,69	-0,73
314,059	-0,63
314,428	-0,66
314,797	-0,79
315,166	-0,96
315,535	-1,2
315,904	-1,45
316,272	-1,69
316,641	-1,9
317,01	-1,84
317,379	-1,75
317,747	-1,65
318,116	-1,65
318,484	-1,61
318,853	-1,49
319,221	-1,42
319,59	-1,33
319,958	-1,32
320,327	-1,36
320,695	-1,34
321,063	-1,26
321,432	-1,26
321,8	-1,1
322,168	-0,91
322,536	-0,85
322,905	-0,49
323,273	-0,15
323,641	0,17
324,009	0,42
324,377	0,59
324,745	0,75
325,113	0,9
325,481	1,07
325,849	1,09
326,216	1,16
326,584	1,37
326,952	1,63
327,32	1,88
327,687	2,08
328,055	2,38
328,423	2,62
328,79	2,7
329,158	2,78
329,525	2,74
329,893	2,85
330,26	3,08
330,628	3,05
330,995	3,13
331,362	3,13
331,73	3,13
332,097	3,13
332,464	3,19
332,831	3,29
333,199	3,35
333,566	3,63
333,933	3,82
334,3	3,92
334,667	3,99
335,034	4
335,401	4,05
335,768	4,1
336,135	4,25
336,502	4,38
336,868	4,49
337,235	4,62
337,602	4,6
337,969	4,67
338,335	4,8
338,702	4,87
339,069	5,01
339,435	5,16
339,802	5,37
340,168	5,48
340,535	5,54
340,901	5,52
341,267	5,42
341,634	5,41
342	5,45
342,366	5,56
342,733	5,62
343,099	5,68
343,465	5,67
343,831	5,67
344,197	5,71
344,563	5,74
344,929	5,75
345,295	5,87
345,661	6
346,027	6,03
346,393	6,05
346,759	6,03
347,125	6,05
347,491	6,05
347,856	6,1
348,222	6,11
348,588	6,21
348,953	6,33
349,319	6,35
349,684	6,37
350,05	6,35
350,415	6,44
350,781	6,53
351,146	6,64
351,512	6,72
351,877	6,75
352,242	6,79
352,608	6,88
352,973	6,94
353,338	6,93
353,703	6,99
354,068	7,01
354,433	7,1
354,798	7,16
355,164	7,24
355,528	7,26
355,893	7,33
356,258	7,34
356,623	7,45
356,988	7,63
357,353	7,75
357,718	7,83
358,082	7,83
358,447	7,8
358,812	7,88
359,176	7,95
359,541	8,12
359,905	8,2
360,27	8,25
360,634	8,24
360,999	8,26
361,363	8,29
361,728	8,35
362,092	8,41
362,456	8,43
362,821	8,47
363,185	8,51
363,549	8,53
363,913	8,57
364,277	8,56
364,641	8,56
365,005	8,62
365,369	8,66
365,733	8,76
366,097	8,87
366,461	8,91
366,825	8,98
367,189	8,95
367,553	8,98
367,916	9,08
368,28	9,26
368,644	9,39
369,007	9,51
369,371	9,62
369,734	9,66
370,098	9,75
370,461	9,82
370,825	9,88
371,188	9,98
371,552	10,1
371,915	10,15
372,278	10,22
372,642	10,29
373,005	10,44
373,368	10,56
373,731	10,64
374,094	10,71
374,457	10,77
374,82	10,88
375,183	10,97
375,546	11,01
375,909	11
376,272	11,1
376,635	11,18
376,998	11,26
377,361	11,35
377,723	11,43
378,086	11,48
378,449	11,58
378,811	11,67
379,174	11,78
379,537	11,83
379,899	11,86
380,262	11,9
380,624	11,91
380,987	11,95
381,349	12,02
381,711	12,11
382,074	12,16
382,436	12,23
382,798	12,38
383,16	12,43
383,522	12,45
383,884	12,48
384,247	12,56
384,609	12,61
384,971	12,65
385,333	12,67
385,695	12,7
386,056	12,7
386,418	12,71
386,78	12,67
387,142	12,7
387,504	12,72
387,865	12,73
388,227	12,72
388,589	12,72
388,95	12,73
389,312	12,72
389,673	12,74
390,035	12,75
390,396	12,7
390,758	12,74
391,119	12,8
391,48	12,8
391,842	12,79
392,203	12,77
392,564	12,8
392,925	12,86
393,286	12,88
393,648	12,93
394,009	12,96
394,37	12,99
394,731	13,04
395,092	13,11
395,452	13,12
395,813	13,17
396,174	13,22
396,535	13,2
396,896	13,23
397,257	13,25
397,617	13,26
397,978	13,29
398,338	13,32
398,699	13,35
399,06	13,42
399,42	13,4
399,781	13,46
400,141	13,5
400,501	13,5
400,862	13,51
401,222	13,52
401,582	13,55
401,943	13,59
402,303	13,6
402,663	13,6
403,023	13,64
403,383	13,63
403,743	13,61
404,103	13,68
404,463	13,72
404,823	13,76
405,183	13,8
405,543	13,82
405,903	13,83
406,262	13,83
406,622	13,81
406,982	13,83
407,342	13,81
407,701	13,82
408,061	13,85
408,42	13,91
408,78	13,92
409,139	13,93
409,499	13,94
409,858	13,96
410,217	13,97
410,577	13,97
410,936	14
411,295	14,02
411,655	14,01
412,014	13,98
412,373	13,97
412,732	13,93
413,091	13,9
413,45	13,9
413,809	13,86
414,168	13,84
414,527	13,83
414,886	13,78
415,245	13,76
415,603	13,71
415,962	13,64
416,321	13,61
416,679	13,6
417,038	13,56
417,397	13,54
417,755	13,51
418,114	13,49
418,472	13,45
418,831	13,42
419,189	13,41
419,547	13,42
419,906	13,41
420,264	13,41
420,622	13,4
420,981	13,38
421,339	13,4
421,697	13,39
422,055	13,41
422,413	13,43
422,771	13,45
423,129	13,47
423,487	13,5
423,845	13,53
424,203	13,55
424,56	13,58
424,918	13,61
425,276	13,65
425,634	13,7
425,991	13,74
426,349	13,8
426,707	13,85
427,064	13,87
427,422	13,9
427,779	13,96
428,137	14
428,494	14,08
428,851	14,1
429,209	14,15
429,566	14,14
429,923	14,15
430,28	14,14
430,637	14,12
430,995	14,12
431,352	14,12
431,709	14,12
432,066	14,14
432,423	14,14
432,78	14,18
433,137	14,17
433,493	14,18
433,85	14,2
434,207	14,16
434,564	14,16
434,92	14,16
435,277	14,15
435,634	14,16
435,99	14,14
436,347	14,12
436,703	14,12
437,06	14,13
437,416	14,15
437,773	14,15
438,129	14,14
438,485	14,16
438,841	14,16
439,198	14,15
439,554	14,15
439,91	14,17
440,266	14,15
440,622	14,16
440,978	14,17
441,334	14,15
441,69	14,15
442,046	14,15
442,402	14,14
442,758	14,16
443,113	14,17
443,469	14,19
443,825	14,2
444,181	14,19
444,536	14,21
444,892	14,21
445,247	14,23
445,603	14,27
445,958	14,29
446,314	14,31
446,669	14,31
447,025	14,32
447,38	14,32
447,735	14,35
448,09	14,35
448,446	14,34
448,801	14,35
449,156	14,4
449,511	14,44
449,866	14,46
450,221	14,47
450,576	14,47
450,931	14,5
451,286	14,56
451,641	14,6
451,995	14,63
452,35	14,69
452,705	14,7
453,06	14,69
453,414	14,69
453,769	14,7
454,123	14,72
454,478	14,73
454,832	14,75
455,187	14,72
455,541	14,71
455,896	14,71
456,25	14,7
456,604	14,67
456,958	14,66
457,313	14,67
457,667	14,67
458,021	14,68
458,375	14,71
458,729	14,72
459,083	14,72
459,437	14,74
459,791	14,73
460,145	14,74
460,499	14,75
460,852	14,75
461,206	14,77
461,56	14,75
461,914	14,76
462,267	14,75
462,621	14,77
462,974	14,8
463,328	14,84
463,681	14,87
464,035	14,91
464,388	14,93
464,742	14,94
465,095	14,96
465,448	14,97
465,801	14,93
466,155	14,93
466,508	14,92
466,861	14,9
467,214	14,9
467,567	14,89
467,92	14,91
468,273	14,93
468,626	14,93
468,979	14,95
469,332	14,96
469,684	14,97
470,037	14,99
470,39	14,98
470,743	14,98
471,095	14,99
471,448	15
471,8	15,02
472,153	15,05
472,505	15,06
472,858	15,06
473,21	15,09
473,562	15,09
473,915	15,12
474,267	15,14
474,619	15,15
474,971	15,15
475,324	15,15
475,676	15,15
476,028	15,16
476,38	15,18
476,732	15,19
477,084	15,2
477,436	15,19
477,787	15,19
478,139	15,18
478,491	15,19
478,843	15,19
479,195	15,16
479,546	15,11
479,898	15,1
480,249	15,06
480,601	15,05
480,952	15,03
481,304	15,03
481,655	15,01
482,007	15
482,358	15,01
482,709	15,02
483,061	15,01
483,412	14,99
483,763	14,99
484,114	14,98
484,465	14,97
484,816	14,97
485,167	14,96
485,518	14,97
485,869	14,97
486,22	14,97
486,571	14,98
486,922	15
487,272	15,01
487,623	15,03
487,974	15,03
488,324	15,04
488,675	15,04
489,025	15,07
489,376	15,08
489,726	15,08
490,077	15,09
490,427	15,11
490,778	15,14
491,128	15,15
491,478	15,16
491,828	15,18
492,179	15,2
492,529	15,23
492,879	15,25
493,229	15,26
493,579	15,28
493,929	15,29
494,279	15,3
494,629	15,31
494,979	15,33
495,328	15,37
495,678	15,4
496,028	15,44
496,378	15,45
496,727	15,47
497,077	15,49
497,426	15,5
497,776	15,5
498,125	15,49
498,475	15,49
498,824	15,51
499,174	15,52
499,523	15,52
499,872	15,56
500,221	15,57
500,571	15,59
500,92	15,6
501,269	15,62
501,618	15,63
501,967	15,63
502,316	15,64
502,665	15,64
503,014	15,66
503,363	15,66
503,711	15,67
504,06	15,66
504,409	15,67
504,758	15,69
505,106	15,72
505,455	15,72
505,803	15,72
506,152	15,7
506,5	15,72
506,849	15,76
507,197	15,74
507,546	15,75
507,894	15,74
508,242	15,74
508,59	15,75
508,939	15,74
509,287	15,74
509,635	15,75
509,983	15,75
510,331	15,77
510,679	15,79
511,027	15,8
511,375	15,83
511,723	15,83
512,07	15,84
512,418	15,84
512,766	15,87
513,114	15,9
513,461	15,93
513,809	15,94
514,156	15,93
514,504	15,94
514,851	15,92
515,199	15,9
515,546	15,9
515,893	15,89
516,241	15,9
516,588	15,92
516,935	15,94
517,282	15,95
517,63	15,95
517,977	15,94
518,324	15,95
518,671	15,93
519,018	15,94
519,365	15,95
519,711	15,96
520,058	15,98
520,405	15,97
520,752	15,96
521,099	15,95
521,445	15,96
521,792	15,98
522,138	15,99
522,485	16
522,832	16,01
523,178	16,03
523,524	16,04
523,871	16,04
524,217	16,03
524,563	16,02
524,91	16,02
525,256	16
525,602	15,99
525,948	15,99
526,294	15,99
526,64	15,99
526,986	15,99
527,332	15,97
527,678	15,98
528,024	16,01
528,37	16,03
528,716	16,02
529,061	16,03
529,407	16,02
529,753	16,02
530,098	16,03
530,444	16,03
530,789	16,02
531,135	16,03
531,48	16,04
531,826	16,05
532,171	16,06
532,516	16,09
532,862	16,11
533,207	16,12
533,552	16,14
533,897	16,15
534,242	16,15
534,587	16,17
534,932	16,17
535,277	16,16
535,622	16,17
535,967	16,18
536,312	16,19
536,657	16,23
537,001	16,25
537,346	16,27
537,691	16,27
538,035	16,27
538,38	16,27
538,724	16,24
539,069	16,24
539,413	16,23
539,758	16,24
540,102	16,24
540,446	16,25
540,791	16,25
541,135	16,24
541,479	16,24
541,823	16,24
542,167	16,23
542,512	16,24
542,856	16,22
543,2	16,21
543,543	16,21
543,887	16,2
544,231	16,2
544,575	16,19
544,919	16,21
545,262	16,23
545,606	16,25
545,95	16,28
546,293	16,3
546,637	16,32
546,98	16,33
547,324	16,34
547,667	16,36
548,011	16,36
548,354	16,37
548,697	16,4
549,04	16,41
549,384	16,42
549,727	16,4
550,07	16,43
550,413	16,44
550,756	16,45
551,099	16,45
551,442	16,46
551,785	16,48
552,128	16,48
552,47	16,46
552,813	16,45
553,156	16,44
553,499	16,41
553,841	16,39
554,184	16,37
554,526	16,35
554,869	16,34
555,211	16,34
555,554	16,33
555,896	16,29
556,238	16,27
556,581	16,25
556,923	16,24
557,265	16,23
557,607	16,21
557,949	16,19
558,291	16,2
558,633	16,21
558,975	16,19
559,317	16,18
559,659	16,17
560,001	16,16
560,343	16,14
560,685	16,14
561,026	16,14
561,368	16,13
561,71	16,14
562,051	16,09
562,393	16,08
562,734	16,05
563,076	16,06
563,417	16,06
563,759	16,08
564,1	16,06
564,441	16,06
564,782	16,05
565,124	16,03
565,465	16,03
565,806	16,02
566,147	16,01
566,488	16
566,829	15,98
567,17	15,97
567,511	15,95
567,851	15,95
568,192	15,95
568,533	15,92
568,874	15,9
569,214	15,91
569,555	15,9
569,895	15,9
570,236	15,89
570,576	15,89
570,917	15,9
571,257	15,91
571,598	15,9
571,938	15,91
572,278	15,92
572,618	15,89
572,959	15,9
573,299	15,88
573,639	15,87
573,979	15,88
574,319	15,87
574,659	15,87
574,999	15,87
575,339	15,85
575,678	15,87
576,018	15,86
576,358	15,86
576,698	15,84
577,037	15,82
577,377	15,82
577,716	15,77
578,056	15,73
578,395	15,7
578,735	15,67
579,074	15,64
579,413	15,62
579,753	15,6
580,092	15,53
580,431	15,54
580,77	15,53
581,109	15,52
581,448	15,52
581,787	15,5
582,126	15,47
582,465	15,49
582,804	15,47
583,143	15,48
583,482	15,45
583,82	15,47
584,159	15,45
584,498	15,44
584,836	15,48
585,175	15,47
585,514	15,46
585,852	15,46
586,19	15,45
586,529	15,46
586,867	15,48
587,205	15,5
587,544	15,53
587,882	15,55
588,22	15,58
588,558	15,57
588,896	15,61
589,234	15,64
589,572	15,61
589,91	15,61
590,248	15,59
590,586	15,6
590,924	15,59
591,262	15,64
591,599	15,63
591,937	15,62
592,275	15,65
592,612	15,67
592,95	15,68
593,287	15,74
593,625	15,76
593,962	15,77
594,299	15,78
594,637	15,78
594,974	15,8
595,311	15,78
595,648	15,81
595,985	15,81
596,322	15,82
596,659	15,84
596,996	15,85
597,333	15,83
597,67	15,86
598,007	15,86
598,344	15,85
598,681	15,88
599,017	15,89
599,354	15,9
599,691	15,92
600,027	15,96
600,364	15,93
600,7	15,95
601,037	15,97
601,373	16
601,71	16
602,046	16
602,382	16
602,718	15,99
603,054	15,98
603,391	16
603,727	16,02
604,063	16,01
604,399	16,04
604,735	16,04
605,071	16,04
605,406	16,06
605,742	16,06
606,078	16,05
606,414	16,05
606,749	16,04
607,085	16,05
607,421	16,07
607,756	16,07
608,092	16,08
608,427	16,06
608,762	16,06
609,098	16,04
609,433	16,06
609,768	16,07
610,104	16,05
610,439	16,03
610,774	16,01
611,109	16,01
611,444	16,02
611,779	15,98
612,114	16,01
612,449	15,99
612,784	15,95
613,118	15,94
613,453	15,94
613,788	15,92
614,123	15,86
614,457	15,82
614,792	15,79
615,126	15,74
615,461	15,71
615,795	15,69
616,13	15,67
616,464	15,63
616,798	15,63
617,132	15,66
617,467	15,64
617,801	15,67
618,135	15,69
618,469	15,71
618,803	15,75
619,137	15,73
619,471	15,75
619,805	15,76
620,139	15,81
620,472	15,82
620,806	15,85
621,14	15,85
621,473	15,86
621,807	15,83
622,141	15,82
622,474	15,84
622,808	15,89
623,141	15,88
623,474	15,9
623,808	15,91
624,141	15,92
624,474	15,96
624,807	15,93
625,141	15,94
625,474	15,91
625,807	15,91
626,14	15,92
626,473	15,9
626,806	15,91
627,138	15,9
627,471	15,87
627,804	15,86
628,137	15,88
628,469	15,88
628,802	15,88
629,135	15,9
629,467	15,88
629,8	15,83
630,132	15,87
630,465	15,88
630,797	15,89
631,129	15,84
631,461	15,84
631,794	15,88
632,126	15,85
632,458	15,91
632,79	15,92
633,122	15,93
633,454	15,94
633,786	15,94
634,118	15,94
634,45	15,96
634,781	15,97
635,113	15,94
635,445	15,97
635,777	16
636,108	16
636,44	15,99
636,771	16,05
637,103	16,05
637,434	16,06
637,765	16,04
638,097	16,05
638,428	16,04
638,759	15,98
639,09	16
639,422	15,95
639,753	15,96
640,084	15,89
640,415	15,9
640,746	15,88
641,077	15,9
641,407	15,95
641,738	15,93
642,069	15,98
642,4	15,96
642,73	15,96
643,061	15,95
643,392	15,99
643,722	15,97
644,053	15,94
644,383	15,89
644,713	15,87
645,044	15,89
645,374	15,92
645,704	15,97
646,034	15,98
646,365	15,95
646,695	15,96
647,025	15,99
647,355	16
647,685	16,03
648,015	15,98
648,344	15,94
648,674	15,92
649,004	15,9
