Data from zc74042_1_Reflection_00002.txt Node
Date: Thu Mar 12 14:48:33 ART 2020
User: Ana
Spectrometer: USB2E3644
Trigger mode: 4
Integration Time (sec): 5,000000E-2
Scans to average: 10
Electric dark correction enabled: true
Nonlinearity correction enabled: false
Boxcar width: 10
XAxis mode: Wavelengths
Number of Pixels in Spectrum: 2048
>>>>>Begin Spectral Data<<<<<
178,315	85,22
178,696	66,67
179,076	56,74
179,457	49,08
179,838	26,77
180,218	13,33
180,599	-116,67
180,979	17,86
181,36	13,57
181,74	64,66
182,121	99,65
182,501	104,24
182,881	93,4
183,262	92,46
183,642	95,27
184,022	99,93
184,402	108
184,783	111,68
185,163	108,45
185,543	106,51
185,923	107,51
186,303	108,54
186,683	106,54
187,063	106,32
187,443	107,07
187,823	105,37
188,203	107,22
188,583	111,3
188,963	116,49
189,343	119,96
189,723	119,52
190,102	117,53
190,482	119,28
190,862	121,9
191,242	122,45
191,621	119,33
192,001	118,58
192,38	117,54
192,76	117,79
193,14	119,64
193,519	120,79
193,898	120,17
194,278	118,97
194,657	117,66
195,037	118,1
195,416	119,25
195,795	119,92
196,175	119,43
196,554	117,2
196,933	114,59
197,312	113,89
197,692	113,26
198,071	113,18
198,45	111,76
198,829	111,18
199,208	111,46
199,587	112,51
199,966	112,45
200,345	111,6
200,724	110,91
201,103	110,24
201,482	109,58
201,86	110,45
202,239	112,23
202,618	112,55
202,997	111,63
203,375	110,05
203,754	109,95
204,133	109,74
204,511	109,33
204,89	108,76
205,269	108,09
205,647	108,4
206,026	108,34
206,404	108,8
206,782	108,04
207,161	106,59
207,539	105,55
207,918	105,81
208,296	106,46
208,674	108,56
209,052	109,9
209,431	110,09
209,809	108,92
210,187	107,04
210,565	107,1
210,943	107,85
211,321	109,28
211,699	109,91
212,077	110,51
212,455	112,77
212,833	114,23
213,211	114,99
213,589	115,83
213,967	116,27
214,345	116,14
214,722	116,92
215,1	118,18
215,478	118,72
215,855	118,43
216,233	119,54
216,611	119,17
216,988	119,02
217,366	118,23
217,743	116,62
218,121	116,18
218,498	115,82
218,876	115,54
219,253	115,46
219,631	115,86
220,008	116,83
220,385	115,85
220,762	115,13
221,14	117,37
221,517	117,18
221,894	116,67
222,271	119,23
222,648	121,19
223,025	122
223,402	123,98
223,78	126,56
224,157	127,86
224,533	127,42
224,91	127,5
225,287	130,01
225,664	136
226,041	141,86
226,418	146,49
226,795	147,58
227,171	148,84
227,548	151,21
227,925	152,3
228,301	154,96
228,678	157,42
229,055	155,11
229,431	156,08
229,808	160,37
230,184	161,51
230,561	163,1
230,937	166,89
231,313	170,37
231,69	172,75
232,066	171,92
232,442	174,29
232,819	179,2
233,195	179,68
233,571	179,5
233,947	179,75
234,323	178,98
234,699	182,33
235,075	184,95
235,451	187,47
235,827	190,86
236,203	192,53
236,579	196,75
236,955	207,84
237,331	219,38
237,707	234
238,083	260,75
238,459	310,17
238,834	394,84
239,21	559,12
239,586	883,78
239,961	1783,33
240,337	5410,19
240,713	-10775,93
241,088	-3021,35
241,464	-2217,8
241,839	-1667,51
242,215	-1005,89
242,59	-592,3
242,965	-327,37
243,341	-193,66
243,716	-131,74
244,091	-105,49
244,467	-92,98
244,842	-85,32
245,217	-79,76
245,592	-76,55
245,967	-77,01
246,343	-77,47
246,718	-77,43
247,093	-79,19
247,468	-80,18
247,843	-79,36
248,218	-76,04
248,593	-70,92
248,967	-65,62
249,342	-62,4
249,717	-61,15
250,092	-60,87
250,467	-61,96
250,841	-66,42
251,216	-75,42
251,591	-89,73
251,965	-102,93
252,34	-111,53
252,714	-121,1
253,089	-127,47
253,463	-132,41
253,838	-130,22
254,212	-124,14
254,587	-117,23
254,961	-104,47
255,335	-91,24
255,71	-76,9
256,084	-61,79
256,458	-50,5
256,832	-43,51
257,206	-39,63
257,581	-37,11
257,955	-35,43
258,329	-34,19
258,703	-32,6
259,077	-31,41
259,451	-30,07
259,825	-29,59
260,199	-29,88
260,572	-29,68
260,946	-29,8
261,32	-29,59
261,694	-28,88
262,068	-28,45
262,441	-28,03
262,815	-27,93
263,189	-27,64
263,562	-28,26
263,936	-30,64
264,309	-34,08
264,683	-37,28
265,056	-38,74
265,43	-39,25
265,803	-38,96
266,176	-38,15
266,55	-38,02
266,923	-37,62
267,296	-36,61
267,67	-34,97
268,043	-33,46
268,416	-31,36
268,789	-29,25
269,162	-27,67
269,535	-26,37
269,908	-25,02
270,281	-24,02
270,654	-23,75
271,027	-24,23
271,4	-24,38
271,773	-23,93
272,146	-23,64
272,519	-23,73
272,891	-24,22
273,264	-24,77
273,637	-25,05
274,01	-25,03
274,382	-25,48
274,755	-25,78
275,127	-25,97
275,5	-26,06
275,872	-25,91
276,245	-26,02
276,617	-26,61
276,99	-26,84
277,362	-27,54
277,734	-28,12
278,107	-28,19
278,479	-27,97
278,851	-27,42
279,223	-26,82
279,596	-26,27
279,968	-25,82
280,34	-25,09
280,712	-24,01
281,084	-22,79
281,456	-21,79
281,828	-20,72
282,2	-19,38
282,572	-18,33
282,944	-17,72
283,315	-17,31
283,687	-16,97
284,059	-16,92
284,431	-16,7
284,802	-16,37
285,174	-15,91
285,546	-15,45
285,917	-14,97
286,289	-14,69
286,66	-14,51
287,032	-14,29
287,403	-14,2
287,775	-14,33
288,146	-14,62
288,518	-14,89
288,889	-14,93
289,26	-15,13
289,632	-15,72
290,003	-16,3
290,374	-16,65
290,745	-16,9
291,116	-17,03
291,487	-17,08
291,858	-16,81
292,229	-16,55
292,6	-16,33
292,971	-15,85
293,342	-15,45
293,713	-15,01
294,084	-14,33
294,455	-13,61
294,826	-13,31
295,196	-13,3
295,567	-13,33
295,938	-13,11
296,308	-12,8
296,679	-12,42
297,05	-11,88
297,42	-11,36
297,791	-10,75
298,161	-10,39
298,532	-10,01
298,902	-9,73
299,272	-9,51
299,643	-9,37
300,013	-8,99
300,383	-8,64
300,754	-8,7
301,124	-8,9
301,494	-9,16
301,864	-9,44
302,234	-9,84
302,604	-9,89
302,974	-9,71
303,344	-9,41
303,714	-9,09
304,084	-8,83
304,454	-8,76
304,824	-8,65
305,194	-8,68
305,563	-8,75
305,933	-8,69
306,303	-8,41
306,673	-7,98
307,042	-7,49
307,412	-6,93
307,781	-6,45
308,151	-6,21
308,521	-5,94
308,89	-5,58
309,259	-5,47
309,629	-5,4
309,998	-5,18
310,368	-5,06
310,737	-4,95
311,106	-4,82
311,475	-4,75
311,845	-4,73
312,214	-4,74
312,583	-4,91
312,952	-5,01
313,321	-5,04
313,69	-4,74
314,059	-4,73
314,428	-4,94
314,797	-5,19
315,166	-5,58
315,535	-6,1
315,904	-6,48
316,272	-6,77
316,641	-6,93
317,01	-6,8
317,379	-6,56
317,747	-6,28
318,116	-5,94
318,484	-5,73
318,853	-5,64
319,221	-5,57
319,59	-5,62
319,958	-5,54
320,327	-5,4
320,695	-5,3
321,063	-5,08
321,432	-4,93
321,8	-4,58
322,168	-4,32
322,536	-4,39
322,905	-4,17
323,273	-3,9
323,641	-3,68
324,009	-3,42
324,377	-3,33
324,745	-3,34
325,113	-3,35
325,481	-3,32
325,849	-3,31
326,216	-3,24
326,584	-3,1
326,952	-2,88
327,32	-2,62
327,687	-2,43
328,055	-2,25
328,423	-1,99
328,79	-1,99
329,158	-2,2
329,525	-2,4
329,893	-2,38
330,26	-2,05
330,628	-1,95
330,995	-1,9
331,362	-1,82
331,73	-1,83
332,097	-1,72
332,464	-1,46
332,831	-1,28
333,199	-1,25
333,566	-1,19
333,933	-1,04
334,3	-0,92
334,667	-0,88
335,034	-0,88
335,401	-0,93
335,768	-0,94
336,135	-0,93
336,502	-0,88
336,868	-0,69
337,235	-0,54
337,602	-0,57
337,969	-0,54
338,335	-0,43
338,702	-0,28
339,069	-0,2
339,435	-0,11
339,802	0,05
340,168	0,1
340,535	0,21
340,901	0,24
341,267	0,24
341,634	0,27
342	0,32
342,366	0,41
342,733	0,46
343,099	0,6
343,465	0,75
343,831	0,85
344,197	1
344,563	1,01
344,929	1,03
345,295	1,22
345,661	1,3
346,027	1,31
346,393	1,28
346,759	1,38
347,125	1,44
347,491	1,41
347,856	1,43
348,222	1,37
348,588	1,48
348,953	1,62
349,319	1,61
349,684	1,6
350,05	1,57
350,415	1,63
350,781	1,64
351,146	1,66
351,512	1,7
351,877	1,65
352,242	1,67
352,608	1,71
352,973	1,75
353,338	1,85
353,703	1,95
354,068	2,03
354,433	2,06
354,798	2,14
355,164	2,21
355,528	2,26
355,893	2,35
356,258	2,36
356,623	2,44
356,988	2,61
357,353	2,78
357,718	2,86
358,082	2,94
358,447	3,04
358,812	3,17
359,176	3,28
359,541	3,38
359,905	3,44
360,27	3,5
360,634	3,56
360,999	3,6
361,363	3,67
361,728	3,77
362,092	3,84
362,456	3,87
362,821	3,93
363,185	4
363,549	4,1
363,913	4,18
364,277	4,17
364,641	4,11
365,005	4,09
365,369	4,12
365,733	4,18
366,097	4,21
366,461	4,24
366,825	4,28
367,189	4,33
367,553	4,45
367,916	4,6
368,28	4,71
368,644	4,8
369,007	4,87
369,371	4,92
369,734	4,96
370,098	5,01
370,461	5,08
370,825	5,14
371,188	5,17
371,552	5,22
371,915	5,28
372,278	5,45
372,642	5,6
373,005	5,77
373,368	5,89
373,731	6
374,094	6,09
374,457	6,17
374,82	6,29
375,183	6,35
375,546	6,37
375,909	6,38
376,272	6,42
376,635	6,48
376,998	6,58
377,361	6,68
377,723	6,78
378,086	6,87
378,449	6,95
378,811	7
379,174	7,07
379,537	7,16
379,899	7,18
380,262	7,22
380,624	7,23
380,987	7,25
381,349	7,31
381,711	7,33
382,074	7,39
382,436	7,47
382,798	7,59
383,16	7,61
383,522	7,67
383,884	7,7
384,247	7,71
384,609	7,72
384,971	7,73
385,333	7,69
385,695	7,69
386,056	7,71
386,418	7,74
386,78	7,75
387,142	7,78
387,504	7,78
387,865	7,78
388,227	7,77
388,589	7,79
388,95	7,8
389,312	7,83
389,673	7,81
390,035	7,78
390,396	7,73
390,758	7,75
391,119	7,76
391,48	7,8
391,842	7,84
392,203	7,85
392,564	7,9
392,925	7,99
393,286	8,03
393,648	8,04
394,009	8,05
394,37	8,05
394,731	8,06
395,092	8,11
395,452	8,14
395,813	8,18
396,174	8,22
396,535	8,26
396,896	8,27
397,257	8,31
397,617	8,34
397,978	8,4
398,338	8,44
398,699	8,47
399,06	8,5
399,42	8,52
399,781	8,55
400,141	8,53
400,501	8,52
400,862	8,53
401,222	8,54
401,582	8,54
401,943	8,57
402,303	8,6
402,663	8,61
403,023	8,59
403,383	8,6
403,743	8,59
404,103	8,57
404,463	8,62
404,823	8,66
405,183	8,67
405,543	8,66
405,903	8,66
406,262	8,67
406,622	8,67
406,982	8,69
407,342	8,68
407,701	8,71
408,061	8,72
408,42	8,72
408,78	8,74
409,139	8,77
409,499	8,78
409,858	8,79
410,217	8,83
410,577	8,84
410,936	8,86
411,295	8,87
411,655	8,88
412,014	8,86
412,373	8,84
412,732	8,83
413,091	8,8
413,45	8,76
413,809	8,72
414,168	8,66
414,527	8,6
414,886	8,54
415,245	8,49
415,603	8,45
415,962	8,42
416,321	8,37
416,679	8,33
417,038	8,27
417,397	8,23
417,755	8,19
418,114	8,15
418,472	8,11
418,831	8,09
419,189	8,07
419,547	8,04
419,906	8,02
420,264	8
420,622	7,98
420,981	7,98
421,339	7,97
421,697	7,98
422,055	7,99
422,413	8,02
422,771	8,03
423,129	8,05
423,487	8,06
423,845	8,09
424,203	8,11
424,56	8,14
424,918	8,16
425,276	8,19
425,634	8,23
425,991	8,28
426,349	8,31
426,707	8,35
427,064	8,4
427,422	8,42
427,779	8,47
428,137	8,53
428,494	8,59
428,851	8,64
429,209	8,66
429,566	8,67
429,923	8,65
430,28	8,65
430,637	8,67
430,995	8,67
431,352	8,68
431,709	8,67
432,066	8,68
432,423	8,7
432,78	8,68
433,137	8,68
433,493	8,67
433,85	8,68
434,207	8,66
434,564	8,64
434,92	8,64
435,277	8,64
435,634	8,62
435,99	8,59
436,347	8,57
436,703	8,6
437,06	8,59
437,416	8,6
437,773	8,59
438,129	8,56
438,485	8,56
438,841	8,54
439,198	8,54
439,554	8,52
439,91	8,52
440,266	8,53
440,622	8,52
440,978	8,52
441,334	8,49
441,69	8,49
442,046	8,48
442,402	8,48
442,758	8,45
443,113	8,45
443,469	8,46
443,825	8,45
444,181	8,43
444,536	8,42
444,892	8,42
445,247	8,43
445,603	8,45
445,958	8,45
446,314	8,47
446,669	8,48
447,025	8,5
447,38	8,51
447,735	8,51
448,09	8,53
448,446	8,55
448,801	8,56
449,156	8,58
449,511	8,6
449,866	8,62
450,221	8,66
450,576	8,69
450,931	8,73
451,286	8,78
451,641	8,82
451,995	8,86
452,35	8,9
452,705	8,92
453,06	8,93
453,414	8,95
453,769	8,96
454,123	8,94
454,478	8,96
454,832	8,97
455,187	8,96
455,541	8,95
455,896	8,93
456,25	8,91
456,604	8,88
456,958	8,87
457,313	8,85
457,667	8,83
458,021	8,8
458,375	8,79
458,729	8,8
459,083	8,8
459,437	8,8
459,791	8,79
460,145	8,8
460,499	8,8
460,852	8,79
461,206	8,8
461,56	8,8
461,914	8,79
462,267	8,8
462,621	8,79
462,974	8,79
463,328	8,82
463,681	8,84
464,035	8,88
464,388	8,91
464,742	8,93
465,095	8,96
465,448	8,99
465,801	8,98
466,155	8,96
466,508	8,93
466,861	8,93
467,214	8,94
467,567	8,93
467,92	8,95
468,273	8,96
468,626	8,94
468,979	8,96
469,332	8,97
469,684	8,97
470,037	8,99
470,39	9,01
470,743	9,02
471,095	9,02
471,448	9,03
471,8	9,03
472,153	9,04
472,505	9,05
472,858	9,06
473,21	9,09
473,562	9,11
473,915	9,13
474,267	9,14
474,619	9,14
474,971	9,15
475,324	9,14
475,676	9,17
476,028	9,18
476,38	9,17
476,732	9,17
477,084	9,17
477,436	9,16
477,787	9,14
478,139	9,12
478,491	9,1
478,843	9,09
479,195	9,07
479,546	9,04
479,898	9
480,249	8,95
480,601	8,91
480,952	8,88
481,304	8,86
481,655	8,84
482,007	8,8
482,358	8,78
482,709	8,77
483,061	8,75
483,412	8,74
483,763	8,73
484,114	8,73
484,465	8,73
484,816	8,72
485,167	8,72
485,518	8,72
485,869	8,71
486,22	8,71
486,571	8,71
486,922	8,71
487,272	8,73
487,623	8,74
487,974	8,76
488,324	8,77
488,675	8,77
489,025	8,79
489,376	8,81
489,726	8,82
490,077	8,83
490,427	8,84
490,778	8,84
491,128	8,85
491,478	8,86
491,828	8,89
492,179	8,92
492,529	8,93
492,879	8,94
493,229	8,99
493,579	9,01
493,929	9,02
494,279	9,04
494,629	9,04
494,979	9,05
495,328	9,06
495,678	9,09
496,028	9,15
496,378	9,17
496,727	9,21
497,077	9,24
497,426	9,26
497,776	9,27
498,125	9,3
498,475	9,3
498,824	9,32
499,174	9,32
499,523	9,31
499,872	9,33
500,221	9,35
500,571	9,34
500,92	9,35
501,269	9,38
501,618	9,37
501,967	9,39
502,316	9,39
502,665	9,41
503,014	9,4
503,363	9,4
503,711	9,41
504,06	9,4
504,409	9,42
504,758	9,42
505,106	9,41
505,455	9,4
505,803	9,41
506,152	9,38
506,5	9,38
506,849	9,38
507,197	9,38
507,546	9,37
507,894	9,38
508,242	9,38
508,59	9,35
508,939	9,35
509,287	9,34
509,635	9,37
509,983	9,39
510,331	9,39
510,679	9,39
511,027	9,4
511,375	9,41
511,723	9,4
512,07	9,42
512,418	9,45
512,766	9,48
513,114	9,5
513,461	9,52
513,809	9,52
514,156	9,54
514,504	9,54
514,851	9,54
515,199	9,53
515,546	9,51
515,893	9,51
516,241	9,53
516,588	9,53
516,935	9,52
517,282	9,5
517,63	9,52
517,977	9,52
518,324	9,53
518,671	9,54
519,018	9,56
519,365	9,55
519,711	9,55
520,058	9,55
520,405	9,55
520,752	9,54
521,099	9,54
521,445	9,56
521,792	9,57
522,138	9,58
522,485	9,59
522,832	9,61
523,178	9,63
523,524	9,61
523,871	9,62
524,217	9,62
524,563	9,62
524,91	9,61
525,256	9,57
525,602	9,56
525,948	9,53
526,294	9,51
526,64	9,5
526,986	9,48
527,332	9,44
527,678	9,44
528,024	9,44
528,37	9,44
528,716	9,42
529,061	9,42
529,407	9,42
529,753	9,42
530,098	9,42
530,444	9,42
530,789	9,41
531,135	9,4
531,48	9,4
531,826	9,39
532,171	9,39
532,516	9,39
532,862	9,4
533,207	9,43
533,552	9,44
533,897	9,46
534,242	9,46
534,587	9,49
534,932	9,5
535,277	9,51
535,622	9,5
535,967	9,51
536,312	9,53
536,657	9,52
537,001	9,54
537,346	9,54
537,691	9,57
538,035	9,59
538,38	9,62
538,724	9,62
539,069	9,63
539,413	9,63
539,758	9,63
540,102	9,64
540,446	9,61
540,791	9,6
541,135	9,6
541,479	9,62
541,823	9,63
542,167	9,64
542,512	9,65
542,856	9,65
543,2	9,65
543,543	9,65
543,887	9,65
544,231	9,65
544,575	9,66
544,919	9,64
545,262	9,64
545,606	9,65
545,95	9,66
546,293	9,67
546,637	9,69
546,98	9,71
547,324	9,71
547,667	9,74
548,011	9,75
548,354	9,76
548,697	9,76
549,04	9,76
549,384	9,77
549,727	9,76
550,07	9,78
550,413	9,77
550,756	9,76
551,099	9,78
551,442	9,79
551,785	9,8
552,128	9,81
552,47	9,82
552,813	9,8
553,156	9,78
553,499	9,77
553,841	9,77
554,184	9,76
554,526	9,74
554,869	9,73
555,211	9,72
555,554	9,71
555,896	9,71
556,238	9,69
556,581	9,62
556,923	9,61
557,265	9,59
557,607	9,57
557,949	9,57
558,291	9,56
558,633	9,52
558,975	9,51
559,317	9,48
559,659	9,46
560,001	9,47
560,343	9,46
560,685	9,43
561,026	9,42
561,368	9,4
561,71	9,38
562,051	9,37
562,393	9,39
562,734	9,35
563,076	9,33
563,417	9,32
563,759	9,34
564,1	9,33
564,441	9,32
564,782	9,32
565,124	9,3
565,465	9,3
565,806	9,29
566,147	9,29
566,488	9,28
566,829	9,25
567,17	9,22
567,511	9,19
567,851	9,19
568,192	9,19
568,533	9,18
568,874	9,18
569,214	9,18
569,555	9,13
569,895	9,11
570,236	9,08
570,576	9,09
570,917	9,08
571,257	9,07
571,598	9,04
571,938	9,01
572,278	9
572,618	8,99
572,959	9
573,299	8,98
573,639	8,97
573,979	8,96
574,319	8,96
574,659	8,96
574,999	8,94
575,339	8,92
575,678	8,91
576,018	8,89
576,358	8,86
576,698	8,85
577,037	8,86
577,377	8,86
577,716	8,84
578,056	8,82
578,395	8,79
578,735	8,8
579,074	8,8
579,413	8,8
579,753	8,77
580,092	8,74
580,431	8,7
580,77	8,69
581,109	8,69
581,448	8,67
581,787	8,62
582,126	8,63
582,465	8,64
582,804	8,61
583,143	8,61
583,482	8,63
583,82	8,64
584,159	8,63
584,498	8,61
584,836	8,58
585,175	8,57
585,514	8,59
585,852	8,6
586,19	8,6
586,529	8,58
586,867	8,57
587,205	8,58
587,544	8,63
587,882	8,64
588,22	8,66
588,558	8,69
588,896	8,73
589,234	8,71
589,572	8,69
589,91	8,72
590,248	8,67
590,586	8,65
590,924	8,65
591,262	8,66
591,599	8,67
591,937	8,67
592,275	8,67
592,612	8,66
592,95	8,66
593,287	8,7
593,625	8,71
593,962	8,72
594,299	8,71
594,637	8,7
594,974	8,71
595,311	8,71
595,648	8,71
595,985	8,71
596,322	8,72
596,659	8,74
596,996	8,73
597,333	8,74
597,67	8,74
598,007	8,72
598,344	8,7
598,681	8,7
599,017	8,72
599,354	8,75
599,691	8,77
600,027	8,79
600,364	8,77
600,7	8,8
601,037	8,82
601,373	8,88
601,71	8,91
602,046	8,92
602,382	8,9
602,718	8,93
603,054	8,93
603,391	8,94
603,727	8,93
604,063	8,95
604,399	9
604,735	9,01
605,071	9,03
605,406	9,04
605,742	9,06
606,078	9,07
606,414	9,08
606,749	9,1
607,085	9,09
607,421	9,1
607,756	9,12
608,092	9,11
608,427	9,07
608,762	9,04
609,098	9,02
609,433	9,02
609,768	8,99
610,104	8,97
610,439	8,94
610,774	8,96
611,109	8,95
611,444	8,92
611,779	8,91
612,114	8,92
612,449	8,94
612,784	8,92
613,118	8,9
613,453	8,86
613,788	8,81
614,123	8,77
614,457	8,73
614,792	8,68
615,126	8,66
615,461	8,65
615,795	8,67
616,13	8,64
616,464	8,64
616,798	8,65
617,132	8,66
617,467	8,67
617,801	8,65
618,135	8,63
618,469	8,64
618,803	8,67
619,137	8,7
619,471	8,69
619,805	8,68
620,139	8,71
620,472	8,73
620,806	8,74
621,14	8,75
621,473	8,76
621,807	8,77
622,141	8,78
622,474	8,75
622,808	8,71
623,141	8,72
623,474	8,75
623,808	8,81
624,141	8,83
624,474	8,88
624,807	8,91
625,141	8,92
625,474	8,93
625,807	8,92
626,14	8,9
626,473	8,9
626,806	8,9
627,138	8,89
627,471	8,87
627,804	8,86
628,137	8,86
628,469	8,86
628,802	8,86
629,135	8,85
629,467	8,88
629,8	8,89
630,132	8,9
630,465	8,9
630,797	8,85
631,129	8,81
631,461	8,79
631,794	8,79
632,126	8,79
632,458	8,81
632,79	8,82
633,122	8,84
633,454	8,85
633,786	8,88
634,118	8,88
634,45	8,9
634,781	8,92
635,113	8,94
635,445	8,94
635,777	8,97
636,108	8,99
636,44	8,99
636,771	9,02
637,103	8,99
637,434	8,98
637,765	9
638,097	9,02
638,428	9,01
638,759	8,97
639,09	8,98
639,422	8,97
639,753	8,97
640,084	8,95
640,415	8,96
640,746	8,98
641,077	8,99
641,407	9,01
641,738	9
642,069	9,02
642,4	9,06
642,73	9,04
643,061	9,03
643,392	9,01
643,722	9,03
644,053	9,07
644,383	9,09
644,713	9,09
645,044	9,08
645,374	9,08
645,704	9,11
646,034	9,11
646,365	9,09
646,695	9,06
647,025	9,1
647,355	9,11
647,685	9,08
648,015	9,07
648,344	9,04
648,674	9,05
649,004	9,03
649,334	9,01
649,663	9,02
649,993	8,99
650,323	9,02
650,652	8,99
650,982	8,96
651,311	8,94
651,64	8,92
651,97	8,95
652,299	8,98
652,628	8,98
652,958	9
653,287	9,01
653,616	9,03
653,945	9,03
654,274	9,03
654,603	9,03
654,932	9,02
655,261	9,06
655,589	9,08
655,918	9,12
656,247	9,14
656,576	9,17
656,904	9,23
657,233	9,23
657,561	9,24
657,89	9,28
658,218	9,33
658,547	9,35
658,875	9,31
659,203	9,28
659,532	9,29
659,86	9,31
660,188	9,33
660,516	9,36
660,844	9,36
661,172	9,37
661,5	9,39
661,828	9,43
662,156	9,4
662,484	9,37
662,811	9,34
663,139	9,34
663,467	9,34
663,794	9,34
664,122	9,34
664,45	9,34
664,777	9,31
665,104	9,32
665,432	9,3
