Data from zc74019_1_Reflection_00001.txt Node
Date: Thu Mar 12 14:40:25 ART 2020
User: Ana
Spectrometer: USB2E3644
Trigger mode: 4
Integration Time (sec): 5,000000E-2
Scans to average: 10
Electric dark correction enabled: true
Nonlinearity correction enabled: false
Boxcar width: 10
XAxis mode: Wavelengths
Number of Pixels in Spectrum: 2048
>>>>>Begin Spectral Data<<<<<
178,315	81,17
178,696	74,32
179,076	55,8
179,457	38,33
179,838	30,49
180,218	19,05
180,599	-30
180,979	65,52
181,36	130
181,74	142,86
182,121	151,92
182,501	136,79
182,881	137,67
183,262	127,67
183,642	126,89
184,022	125,47
184,402	129,26
184,783	128,32
185,163	120,39
185,543	117,28
185,923	115,02
186,303	116,55
186,683	118,58
187,063	119,02
187,443	117,6
187,823	121,98
188,203	128,36
188,583	133,83
188,963	135,34
189,343	136,64
189,723	136,99
190,102	136,85
190,482	134,28
190,862	134,95
191,242	138,05
191,621	137,42
192,001	135,68
192,38	137,02
192,76	136,39
193,14	135,32
193,519	135,44
193,898	136,99
194,278	136,54
194,657	134,28
195,037	131,75
195,416	129,6
195,795	129,07
196,175	128,84
196,554	129,04
196,933	129,92
197,312	129,65
197,692	129,93
198,071	128,56
198,45	128,56
198,829	129,11
199,208	129,42
199,587	130,61
199,966	130,95
200,345	129,7
200,724	130,25
201,103	131,82
201,482	132,39
201,86	130,79
202,239	129,68
202,618	129,23
202,997	128,51
203,375	128,05
203,754	128,36
204,133	129,21
204,511	127,55
204,89	126,82
205,269	127
205,647	126,05
206,026	128,2
206,404	131,06
206,782	130,63
207,161	129,87
207,539	129,54
207,918	128,97
208,296	127,12
208,674	126,26
209,052	127,24
209,431	129
209,809	132,32
210,187	134,76
210,565	136,2
210,943	137,56
211,321	138,01
211,699	137,22
212,077	135,11
212,455	134,12
212,833	134,04
213,211	131,1
213,589	129,93
213,967	127,31
214,345	123,01
214,722	119,37
215,1	117,95
215,478	115,63
215,855	114,62
216,233	115,22
216,611	113,48
216,988	110,02
217,366	107,11
217,743	104,77
218,121	102,81
218,498	101,61
218,876	99,92
219,253	99,77
219,631	99,14
220,008	100,08
220,385	102,36
220,762	101,89
221,14	103,76
221,517	104,02
221,894	103,16
222,271	103,69
222,648	106,29
223,025	107,11
223,402	107,42
223,78	108,17
224,157	109,88
224,533	113,53
224,91	120,68
225,287	127,86
225,664	134,17
226,041	139,73
226,418	144,86
226,795	151,88
227,171	161,98
227,548	166,79
227,925	166,46
228,301	167,44
228,678	170,22
229,055	171,62
229,431	177,41
229,808	184,86
230,184	188,02
230,561	194,77
230,937	205,23
231,313	219,03
231,69	226,18
232,066	229,68
232,442	223,49
232,819	215,45
233,195	209,53
233,571	209,39
233,947	207,55
234,323	206,85
234,699	206,93
235,075	207,16
235,451	215,01
235,827	224,49
236,203	237,7
236,579	252,54
236,955	273,55
237,331	298,85
237,707	346,43
238,083	432,33
238,459	572,26
238,834	1018,82
239,21	6276,67
239,586	-1430
239,961	-808,41
240,337	-571,84
240,713	-492,08
241,088	-453,28
241,464	-419,95
241,839	-381,99
242,215	-324,04
242,59	-258,38
242,965	-181,79
243,341	-127,25
243,716	-93,76
244,091	-77,69
244,467	-70,04
244,842	-64,04
245,217	-59,13
245,592	-56,58
245,967	-56,85
246,343	-56,62
246,718	-56,21
247,093	-57,34
247,468	-58,83
247,843	-58,95
248,218	-56,95
248,593	-52,69
248,967	-48,97
249,342	-47,55
249,717	-46,77
250,092	-46,2
250,467	-46,63
250,841	-49,72
251,216	-55,29
251,591	-63,5
251,965	-70,89
252,34	-76,39
252,714	-83,22
253,089	-87,57
253,463	-89,66
253,838	-87,63
254,212	-84,66
254,587	-81,62
254,961	-74,82
255,335	-65,91
255,71	-56,37
256,084	-46,22
256,458	-39,14
256,832	-34,35
257,206	-31,56
257,581	-29,96
257,955	-28,69
258,329	-27,66
258,703	-26,48
259,077	-25,54
259,451	-24,64
259,825	-24,36
260,199	-24,29
260,572	-23,71
260,946	-23,64
261,32	-23,33
261,694	-22,78
262,068	-22,48
262,441	-22,09
262,815	-21,93
263,189	-21,51
263,562	-21,55
263,936	-23,24
264,309	-25,86
264,683	-28,27
265,056	-28,89
265,43	-28,82
265,803	-28,86
266,176	-28,74
266,55	-28,44
266,923	-28,19
267,296	-27,75
267,67	-26,57
268,043	-25,36
268,416	-24,03
268,789	-22,82
269,162	-21,62
269,535	-20,42
269,908	-19,35
270,281	-18,74
270,654	-18,43
271,027	-18,69
271,4	-19,11
271,773	-19
272,146	-18,56
272,519	-18,28
272,891	-18,37
273,264	-18,76
273,637	-18,95
274,01	-18,64
274,382	-18,89
274,755	-19,04
275,127	-19,32
275,5	-19,69
275,872	-19,72
276,245	-19,89
276,617	-20,19
276,99	-20,46
277,362	-21,15
277,734	-21,63
278,107	-21,77
278,479	-21,77
278,851	-21,52
279,223	-21,12
279,596	-20,83
279,968	-20,82
280,34	-20,69
280,712	-20,24
281,084	-19,32
281,456	-18,34
281,828	-17,72
282,2	-16,47
282,572	-15,33
282,944	-14,45
283,315	-14
283,687	-13,91
284,059	-13,96
284,431	-13,94
284,802	-13,83
285,174	-13,57
285,546	-13,38
285,917	-12,97
286,289	-12,64
286,66	-12,49
287,032	-12,36
287,403	-12,19
287,775	-12,15
288,146	-12,34
288,518	-12,58
288,889	-12,59
289,26	-12,7
289,632	-12,94
290,003	-13,42
290,374	-13,79
290,745	-13,99
291,116	-13,99
291,487	-13,84
291,858	-13,6
292,229	-13,38
292,6	-13,16
292,971	-12,49
293,342	-12,01
293,713	-11,83
294,084	-11,64
294,455	-11,24
294,826	-10,91
295,196	-11
295,567	-11,12
295,938	-10,8
296,308	-10,52
296,679	-10,36
297,05	-10,09
297,42	-9,73
297,791	-9,33
298,161	-9,23
298,532	-9,03
298,902	-8,77
299,272	-8,55
299,643	-8,41
300,013	-8,1
300,383	-7,93
300,754	-8,23
301,124	-8,42
301,494	-8,51
301,864	-8,46
302,234	-8,64
302,604	-8,83
302,974	-8,69
303,344	-8,3
303,714	-8,08
304,084	-7,81
304,454	-7,81
304,824	-7,9
305,194	-8,04
305,563	-8,13
305,933	-7,83
306,303	-7,48
306,673	-7,21
307,042	-7,02
307,412	-6,75
307,781	-6,51
308,151	-6,25
308,521	-5,97
308,89	-5,72
309,259	-5,64
309,629	-5,7
309,998	-5,61
310,368	-5,5
310,737	-5,37
311,106	-5,29
311,475	-5,33
311,845	-5,42
312,214	-5,23
312,583	-5,06
312,952	-5
313,321	-4,9
313,69	-4,83
314,059	-4,9
314,428	-5,03
314,797	-5,13
315,166	-5,32
315,535	-5,54
315,904	-5,84
316,272	-6,02
316,641	-6,23
317,01	-6,26
317,379	-6,19
317,747	-6,12
318,116	-5,93
318,484	-5,78
318,853	-5,83
319,221	-5,86
319,59	-5,99
319,958	-6,07
320,327	-6,11
320,695	-6,04
321,063	-5,92
321,432	-5,86
321,8	-5,65
322,168	-5,56
322,536	-5,5
322,905	-5,2
323,273	-4,93
323,641	-4,59
324,009	-4,35
324,377	-4,11
324,745	-3,85
325,113	-3,57
325,481	-3,31
325,849	-3,23
326,216	-3,21
326,584	-3
326,952	-2,75
327,32	-2,43
327,687	-2,23
328,055	-2,05
328,423	-1,89
328,79	-1,87
329,158	-1,91
329,525	-2,01
329,893	-1,97
330,26	-1,77
330,628	-1,78
330,995	-1,77
331,362	-1,87
331,73	-1,99
332,097	-2,01
332,464	-2,08
332,831	-2,06
333,199	-2,09
333,566	-1,97
333,933	-1,76
334,3	-1,62
334,667	-1,57
335,034	-1,51
335,401	-1,52
335,768	-1,47
336,135	-1,38
336,502	-1,3
336,868	-1,16
337,235	-1,01
337,602	-0,88
337,969	-0,8
338,335	-0,68
338,702	-0,53
339,069	-0,4
339,435	-0,28
339,802	-0,13
340,168	0,04
340,535	0,09
340,901	0,03
341,267	-0,1
341,634	-0,13
342	-0,13
342,366	-0,08
342,733	-0,08
343,099	0,02
343,465	0,1
343,831	0,1
344,197	0,16
344,563	0,18
344,929	0,18
345,295	0,24
345,661	0,28
346,027	0,27
346,393	0,26
346,759	0,27
347,125	0,29
347,491	0,32
347,856	0,32
348,222	0,29
348,588	0,42
348,953	0,62
349,319	0,66
349,684	0,69
350,05	0,71
350,415	0,81
350,781	0,89
351,146	0,92
351,512	1
351,877	1,01
352,242	1,07
352,608	1,13
352,973	1,2
353,338	1,29
353,703	1,44
354,068	1,49
354,433	1,57
354,798	1,64
355,164	1,64
355,528	1,71
355,893	1,8
356,258	1,82
356,623	1,88
356,988	2,03
357,353	2,13
357,718	2,18
358,082	2,2
358,447	2,25
358,812	2,39
359,176	2,48
359,541	2,59
359,905	2,64
360,27	2,69
360,634	2,74
360,999	2,8
361,363	2,84
361,728	2,92
362,092	3
362,456	3,07
362,821	3,19
363,185	3,26
363,549	3,33
363,913	3,4
364,277	3,43
364,641	3,4
365,005	3,45
365,369	3,49
365,733	3,6
366,097	3,66
366,461	3,67
366,825	3,72
367,189	3,72
367,553	3,79
367,916	3,92
368,28	4,04
368,644	4,07
369,007	4,12
369,371	4,24
369,734	4,33
370,098	4,39
370,461	4,41
370,825	4,44
371,188	4,52
371,552	4,58
371,915	4,62
372,278	4,71
372,642	4,8
373,005	4,94
373,368	5,07
373,731	5,16
374,094	5,24
374,457	5,31
374,82	5,45
375,183	5,52
375,546	5,56
375,909	5,6
376,272	5,72
376,635	5,83
376,998	5,87
377,361	5,94
377,723	6,04
378,086	6,15
378,449	6,24
378,811	6,29
379,174	6,36
379,537	6,43
379,899	6,47
380,262	6,54
380,624	6,57
380,987	6,6
381,349	6,65
381,711	6,7
382,074	6,77
382,436	6,83
382,798	6,94
383,16	6,97
383,522	6,96
383,884	6,93
384,247	6,96
384,609	7,02
384,971	7,05
385,333	7,06
385,695	7,07
386,056	7,1
386,418	7,11
386,78	7,11
387,142	7,13
387,504	7,19
387,865	7,25
388,227	7,26
388,589	7,3
388,95	7,33
389,312	7,35
389,673	7,38
390,035	7,36
390,396	7,33
390,758	7,38
391,119	7,43
391,48	7,5
391,842	7,49
392,203	7,48
392,564	7,51
392,925	7,57
393,286	7,57
393,648	7,61
394,009	7,67
394,37	7,72
394,731	7,77
395,092	7,79
395,452	7,78
395,813	7,82
396,174	7,84
396,535	7,82
396,896	7,85
397,257	7,89
397,617	7,95
397,978	7,99
398,338	8,01
398,699	8,04
399,06	8,08
399,42	8,1
399,781	8,13
400,141	8,13
400,501	8,13
400,862	8,15
401,222	8,16
401,582	8,15
401,943	8,15
402,303	8,16
402,663	8,16
403,023	8,15
403,383	8,17
403,743	8,19
404,103	8,22
404,463	8,22
404,823	8,24
405,183	8,23
405,543	8,28
405,903	8,31
406,262	8,31
406,622	8,31
406,982	8,33
407,342	8,37
407,701	8,39
408,061	8,42
408,42	8,45
408,78	8,47
409,139	8,51
409,499	8,53
409,858	8,55
410,217	8,58
410,577	8,6
410,936	8,6
411,295	8,58
411,655	8,58
412,014	8,57
412,373	8,55
412,732	8,54
413,091	8,49
413,45	8,44
413,809	8,38
414,168	8,33
414,527	8,29
414,886	8,26
415,245	8,25
415,603	8,2
415,962	8,15
416,321	8,11
416,679	8,08
417,038	8,02
417,397	7,98
417,755	7,95
418,114	7,93
418,472	7,9
418,831	7,89
419,189	7,88
419,547	7,87
419,906	7,85
420,264	7,83
420,622	7,83
420,981	7,82
421,339	7,83
421,697	7,83
422,055	7,84
422,413	7,85
422,771	7,86
423,129	7,88
423,487	7,9
423,845	7,93
424,203	7,94
424,56	7,98
424,918	8,02
425,276	8,05
425,634	8,09
425,991	8,12
426,349	8,15
426,707	8,19
427,064	8,24
427,422	8,27
427,779	8,33
428,137	8,36
428,494	8,43
428,851	8,46
429,209	8,51
429,566	8,52
429,923	8,53
430,28	8,52
430,637	8,54
430,995	8,52
431,352	8,52
431,709	8,54
432,066	8,55
432,423	8,56
432,78	8,55
433,137	8,54
433,493	8,53
433,85	8,57
434,207	8,55
434,564	8,53
434,92	8,52
435,277	8,51
435,634	8,52
435,99	8,52
436,347	8,52
436,703	8,52
437,06	8,53
437,416	8,54
437,773	8,53
438,129	8,52
438,485	8,55
438,841	8,54
439,198	8,53
439,554	8,51
439,91	8,51
440,266	8,52
440,622	8,53
440,978	8,54
441,334	8,5
441,69	8,49
442,046	8,49
442,402	8,49
442,758	8,49
443,113	8,49
443,469	8,49
443,825	8,5
444,181	8,49
444,536	8,49
444,892	8,49
445,247	8,51
445,603	8,53
445,958	8,54
446,314	8,56
446,669	8,56
447,025	8,58
447,38	8,6
447,735	8,62
448,09	8,64
448,446	8,67
448,801	8,69
449,156	8,73
449,511	8,75
449,866	8,78
450,221	8,8
450,576	8,84
450,931	8,89
451,286	8,92
451,641	8,98
451,995	9,02
452,35	9,07
452,705	9,08
453,06	9,09
453,414	9,09
453,769	9,11
454,123	9,14
454,478	9,13
454,832	9,15
455,187	9,11
455,541	9,1
455,896	9,1
456,25	9,07
456,604	9,04
456,958	9,04
457,313	9,02
457,667	9
458,021	8,99
458,375	8,99
458,729	9
459,083	9
459,437	9,01
459,791	9
460,145	9,01
460,499	9,01
460,852	9,02
461,206	9,02
461,56	9,02
461,914	9,02
462,267	9,02
462,621	9,04
462,974	9,05
463,328	9,06
463,681	9,11
464,035	9,15
464,388	9,17
464,742	9,19
465,095	9,22
465,448	9,25
465,801	9,24
466,155	9,24
466,508	9,25
466,861	9,24
467,214	9,24
467,567	9,23
467,92	9,25
468,273	9,25
468,626	9,26
468,979	9,24
469,332	9,24
469,684	9,24
470,037	9,25
470,39	9,26
470,743	9,28
471,095	9,28
471,448	9,29
471,8	9,3
472,153	9,3
472,505	9,31
472,858	9,33
473,21	9,35
473,562	9,36
473,915	9,36
474,267	9,36
474,619	9,36
474,971	9,36
475,324	9,35
475,676	9,36
476,028	9,35
476,38	9,36
476,732	9,37
477,084	9,37
477,436	9,37
477,787	9,36
478,139	9,35
478,491	9,36
478,843	9,36
479,195	9,36
479,546	9,35
479,898	9,33
480,249	9,31
480,601	9,29
480,952	9,27
481,304	9,24
481,655	9,22
482,007	9,2
482,358	9,18
482,709	9,17
483,061	9,15
483,412	9,16
483,763	9,16
484,114	9,16
484,465	9,17
484,816	9,16
485,167	9,16
485,518	9,15
485,869	9,15
486,22	9,13
486,571	9,12
486,922	9,13
487,272	9,13
487,623	9,13
487,974	9,13
488,324	9,14
488,675	9,16
489,025	9,17
489,376	9,18
489,726	9,2
490,077	9,21
490,427	9,22
490,778	9,23
491,128	9,25
491,478	9,24
491,828	9,25
492,179	9,28
492,529	9,3
492,879	9,31
493,229	9,33
493,579	9,38
493,929	9,4
494,279	9,41
494,629	9,42
494,979	9,43
495,328	9,45
495,678	9,47
496,028	9,5
496,378	9,52
496,727	9,57
497,077	9,6
497,426	9,62
497,776	9,62
498,125	9,62
498,475	9,63
498,824	9,66
499,174	9,66
499,523	9,65
499,872	9,67
500,221	9,7
500,571	9,7
500,92	9,7
501,269	9,72
501,618	9,73
501,967	9,75
502,316	9,75
502,665	9,76
503,014	9,77
503,363	9,77
503,711	9,76
504,06	9,75
504,409	9,75
504,758	9,76
505,106	9,79
505,455	9,8
505,803	9,78
506,152	9,79
506,5	9,8
506,849	9,8
507,197	9,8
507,546	9,79
507,894	9,81
508,242	9,83
508,59	9,81
508,939	9,81
509,287	9,83
509,635	9,83
509,983	9,83
510,331	9,84
510,679	9,86
511,027	9,87
511,375	9,89
511,723	9,91
512,07	9,92
512,418	9,94
512,766	9,96
513,114	10,01
513,461	10,01
513,809	10,02
514,156	10,04
514,504	10,04
514,851	10,05
515,199	10,02
515,546	10,03
515,893	10,03
516,241	10,02
516,588	10,01
516,935	10,03
517,282	10,04
517,63	10,04
517,977	10,04
518,324	10,06
518,671	10,05
519,018	10,06
519,365	10,07
519,711	10,05
520,058	10,06
520,405	10,06
520,752	10,07
521,099	10,07
521,445	10,08
521,792	10,09
522,138	10,09
522,485	10,1
522,832	10,1
523,178	10,11
523,524	10,12
523,871	10,12
524,217	10,11
524,563	10,09
524,91	10,09
525,256	10,07
525,602	10,06
525,948	10,06
526,294	10,03
526,64	10,02
526,986	10
527,332	9,97
527,678	9,95
528,024	9,96
528,37	9,96
528,716	9,95
529,061	9,94
529,407	9,95
529,753	9,96
530,098	9,96
530,444	9,98
530,789	9,98
531,135	9,98
531,48	9,97
531,826	9,98
532,171	9,98
532,516	10
532,862	10
533,207	10
533,552	10,02
533,897	10,04
534,242	10,07
534,587	10,1
534,932	10,12
535,277	10,11
535,622	10,13
535,967	10,14
536,312	10,15
536,657	10,16
537,001	10,16
537,346	10,17
537,691	10,17
538,035	10,19
538,38	10,21
538,724	10,22
539,069	10,22
539,413	10,23
539,758	10,21
540,102	10,21
540,446	10,19
540,791	10,18
541,135	10,18
541,479	10,18
541,823	10,16
542,167	10,16
542,512	10,18
542,856	10,16
543,2	10,16
543,543	10,17
543,887	10,16
544,231	10,16
544,575	10,16
544,919	10,15
545,262	10,14
545,606	10,15
545,95	10,16
546,293	10,16
546,637	10,16
546,98	10,2
547,324	10,22
547,667	10,29
548,011	10,32
548,354	10,32
548,697	10,34
549,04	10,38
549,384	10,41
549,727	10,39
550,07	10,42
550,413	10,43
550,756	10,44
551,099	10,45
551,442	10,45
551,785	10,46
552,128	10,48
552,47	10,47
552,813	10,46
553,156	10,45
553,499	10,44
553,841	10,44
554,184	10,41
554,526	10,38
554,869	10,31
555,211	10,3
555,554	10,3
555,896	10,26
556,238	10,23
556,581	10,19
556,923	10,16
557,265	10,13
557,607	10,1
557,949	10,06
558,291	10,07
558,633	10,04
558,975	10,02
559,317	10,01
559,659	10,02
560,001	10
560,343	9,96
560,685	9,95
561,026	9,94
561,368	9,95
561,71	9,96
562,051	9,97
562,393	9,98
562,734	9,97
563,076	9,97
563,417	9,95
563,759	9,99
564,1	9,99
564,441	10
564,782	9,98
565,124	9,97
565,465	9,95
565,806	9,96
566,147	9,95
566,488	9,93
566,829	9,93
567,17	9,94
567,511	9,97
567,851	9,97
568,192	9,96
568,533	9,93
568,874	9,93
569,214	9,92
569,555	9,88
569,895	9,86
570,236	9,83
570,576	9,82
570,917	9,8
571,257	9,77
571,598	9,75
571,938	9,75
572,278	9,77
572,618	9,78
572,959	9,77
573,299	9,77
573,639	9,75
573,979	9,74
574,319	9,71
574,659	9,67
574,999	9,66
575,339	9,66
575,678	9,68
576,018	9,67
576,358	9,65
576,698	9,67
577,037	9,65
577,377	9,67
577,716	9,67
578,056	9,64
578,395	9,64
578,735	9,65
579,074	9,64
579,413	9,6
579,753	9,55
580,092	9,51
580,431	9,49
580,77	9,48
581,109	9,46
581,448	9,44
581,787	9,43
582,126	9,39
582,465	9,39
582,804	9,35
583,143	9,33
583,482	9,32
583,82	9,29
584,159	9,29
584,498	9,27
584,836	9,28
585,175	9,26
585,514	9,26
585,852	9,24
586,19	9,24
586,529	9,26
586,867	9,29
587,205	9,31
587,544	9,33
587,882	9,35
588,22	9,39
588,558	9,41
588,896	9,45
589,234	9,45
589,572	9,43
589,91	9,44
590,248	9,44
590,586	9,44
590,924	9,45
591,262	9,47
591,599	9,48
591,937	9,47
592,275	9,49
592,612	9,52
592,95	9,55
593,287	9,59
593,625	9,59
593,962	9,6
594,299	9,62
594,637	9,64
594,974	9,63
595,311	9,62
595,648	9,62
595,985	9,6
596,322	9,62
596,659	9,63
596,996	9,63
597,333	9,64
597,67	9,64
598,007	9,64
598,344	9,64
598,681	9,64
599,017	9,65
599,354	9,65
599,691	9,63
600,027	9,64
600,364	9,66
600,7	9,68
601,037	9,7
601,373	9,71
601,71	9,73
602,046	9,76
602,382	9,77
602,718	9,77
603,054	9,79
603,391	9,8
603,727	9,79
604,063	9,82
604,399	9,82
604,735	9,85
605,071	9,87
605,406	9,9
605,742	9,92
606,078	9,95
606,414	9,98
606,749	10
607,085	10
607,421	10
607,756	9,99
608,092	9,98
608,427	9,97
608,762	9,93
609,098	9,9
609,433	9,87
609,768	9,87
610,104	9,86
610,439	9,83
610,774	9,86
611,109	9,84
611,444	9,82
611,779	9,8
612,114	9,79
612,449	9,77
612,784	9,72
613,118	9,67
613,453	9,63
613,788	9,6
614,123	9,58
614,457	9,57
614,792	9,53
615,126	9,52
615,461	9,51
615,795	9,51
616,13	9,5
616,464	9,53
616,798	9,54
617,132	9,55
617,467	9,57
617,801	9,56
618,135	9,58
618,469	9,6
618,803	9,62
619,137	9,62
619,471	9,61
619,805	9,64
620,139	9,65
620,472	9,67
620,806	9,64
621,14	9,63
621,473	9,6
621,807	9,63
622,141	9,63
622,474	9,63
622,808	9,63
623,141	9,66
623,474	9,66
623,808	9,7
624,141	9,73
624,474	9,78
624,807	9,78
625,141	9,78
625,474	9,78
625,807	9,78
626,14	9,77
626,473	9,77
626,806	9,78
627,138	9,78
627,471	9,77
627,804	9,8
628,137	9,82
628,469	9,82
628,802	9,81
629,135	9,81
629,467	9,83
629,8	9,84
630,132	9,8
630,465	9,8
630,797	9,78
631,129	9,76
631,461	9,71
631,794	9,74
632,126	9,73
632,458	9,74
632,79	9,76
633,122	9,78
633,454	9,79
633,786	9,77
634,118	9,77
634,45	9,79
634,781	9,79
635,113	9,78
635,445	9,79
635,777	9,82
636,108	9,82
636,44	9,82
636,771	9,83
637,103	9,83
637,434	9,83
637,765	9,81
638,097	9,78
638,428	9,78
638,759	9,76
639,09	9,76
639,422	9,75
639,753	9,71
640,084	9,68
640,415	9,66
640,746	9,67
641,077	9,69
641,407	9,66
641,738	9,64
642,069	9,62
642,4	9,65
642,73	9,64
643,061	9,63
643,392	9,61
643,722	9,6
644,053	9,62
644,383	9,62
644,713	9,65
645,044	9,67
645,374	9,68
645,704	9,66
646,034	9,69
646,365	9,7
646,695	9,72
647,025	9,74
647,355	9,75
647,685	9,74
648,015	9,75
648,344	9,77
648,674	9,8
649,004	9,8
649,334	9,8
649,663	9,83
649,993	9,83
650,323	9,9
650,652	9,91
650,982	9,92
651,311	9,92
651,64	9,89
651,97	9,89
652,299	9,94
652,628	9,95
652,958	9,94
653,287	9,98
653,616	10
653,945	10,01
654,274	10,03
654,603	10,03
654,932	10,02
655,261	10,01
655,589	10,03
655,918	10,08
656,247	10,12
656,576	10,14
656,904	10,17
657,233	10,16
657,561	10,17
657,89	10,22
658,218	10,26
658,547	10,31
658,875	10,34
659,203	10,33
659,532	10,33
659,86	10,34
660,188	10,34
660,516	10,33
660,844	10,32
661,172	10,33
661,5	10,39
661,828	10,43
662,156	10,46
