Data from zc74051_3_Reflection_00003.txt Node
Date: Thu Mar 12 15:04:44 ART 2020
User: Ana
Spectrometer: USB2E3644
Trigger mode: 4
Integration Time (sec): 5,000000E-2
Scans to average: 10
Electric dark correction enabled: true
Nonlinearity correction enabled: false
Boxcar width: 10
XAxis mode: Wavelengths
Number of Pixels in Spectrum: 2048
>>>>>Begin Spectral Data<<<<<
178,315	136,63
178,696	148,65
179,076	169,93
179,457	187,39
179,838	184,62
180,218	251,52
180,599	-466,67
180,979	89,47
181,36	246,67
181,74	134,85
182,121	113,33
182,501	107,83
182,881	105,47
183,262	105,98
183,642	104,87
184,022	105,69
184,402	108,44
184,783	109,22
185,163	108,33
185,543	109,65
185,923	109,18
186,303	109,07
186,683	111,88
187,063	112,28
187,443	112,91
187,823	110,59
188,203	108,27
188,583	109,16
188,963	108,82
189,343	109,06
189,723	109,41
190,102	109,46
190,482	108,95
190,862	109,05
191,242	109,42
191,621	110,85
192,001	111,55
192,38	111,28
192,76	111,05
193,14	110,86
193,519	110,95
193,898	111,41
194,278	111,21
194,657	110,05
195,037	109,99
195,416	109,52
195,795	109,38
196,175	110,62
196,554	110,14
196,933	109,64
197,312	109,62
197,692	110,38
198,071	111,65
198,45	112,6
198,829	113,12
199,208	113,27
199,587	112,99
199,966	113,24
200,345	113,86
200,724	113,98
201,103	113,6
201,482	112,95
201,86	112,05
202,239	111,14
202,618	110,92
202,997	111,65
203,375	112,55
203,754	113,21
204,133	112,85
204,511	112,13
204,89	111,57
205,269	110,51
205,647	109,4
206,026	108,3
206,404	108,02
206,782	107,39
207,161	106,39
207,539	105,73
207,918	105,24
208,296	104,74
208,674	104,78
209,052	105,56
209,431	106,22
209,809	107,02
210,187	107,92
210,565	108,41
210,943	108,02
211,321	107,56
211,699	107,69
212,077	108,18
212,455	108,98
212,833	109,12
213,211	108,87
213,589	108,52
213,967	108,73
214,345	108,38
214,722	108,35
215,1	108,55
215,478	108,69
215,855	108,72
216,233	108,7
216,611	108,4
216,988	107,71
217,366	106,53
217,743	105,29
218,121	103,89
218,498	102,8
218,876	101,63
219,253	100,09
219,631	97,29
220,008	95,02
220,385	93,57
220,762	92,92
221,14	92,69
221,517	93,07
221,894	93,12
222,271	93,84
222,648	94,76
223,025	95,28
223,402	95,75
223,78	95,54
224,157	94,99
224,533	94,81
224,91	95,29
225,287	96,68
225,664	98,19
226,041	100,28
226,418	101,78
226,795	103,13
227,171	104,5
227,548	106,73
227,925	108,15
228,301	109,15
228,678	109,62
229,055	110,31
229,431	111,5
229,808	112,57
230,184	112,87
230,561	113,35
230,937	113,78
231,313	114,26
231,69	115,56
232,066	118,36
232,442	120,67
232,819	122,65
233,195	123,86
233,571	125,76
233,947	125,91
234,323	126,65
234,699	127,63
235,075	129,17
235,451	131,67
235,827	134,88
236,203	138,66
236,579	143,79
236,955	148,47
237,331	152,64
237,707	157,76
238,083	165,23
238,459	175
238,834	191,14
239,21	212,77
239,586	238,71
239,961	260,87
240,337	279,17
240,713	291,1
241,088	304,55
241,464	315,17
241,839	332,9
242,215	363,56
242,59	447,42
242,965	792,12
243,341	-4264,52
243,716	-530,52
244,091	-303,46
244,467	-225,91
244,842	-183,93
245,217	-155,6
245,592	-141,75
245,967	-139,13
246,343	-134,06
246,718	-130,78
247,093	-133,79
247,468	-137,78
247,843	-136,86
248,218	-129,99
248,593	-118,33
248,967	-107,51
249,342	-101,29
249,717	-97,14
250,092	-94,17
250,467	-94,99
250,841	-102,5
251,216	-119,46
251,591	-147,79
251,965	-180,23
252,34	-212,44
252,714	-255,26
253,089	-309,5
253,463	-353,28
253,838	-356,1
254,212	-349,43
254,587	-319,07
254,961	-258,99
255,335	-203,36
255,71	-156,29
256,084	-113,27
256,458	-86,76
256,832	-71,97
257,206	-64
257,581	-59,87
257,955	-57,43
258,329	-55
258,703	-52,09
259,077	-49,71
259,451	-47,33
259,825	-46,61
260,199	-46,98
260,572	-46,48
260,946	-46,38
261,32	-46,02
261,694	-44,88
262,068	-44,07
262,441	-43,12
262,815	-42,67
263,189	-41,77
263,562	-41,83
263,936	-44,33
264,309	-49,12
264,683	-54,54
265,056	-57,78
265,43	-58,93
265,803	-58,54
266,176	-57,38
266,55	-56,36
266,923	-55,33
267,296	-53,82
267,67	-50,79
268,043	-47,99
268,416	-44,84
268,789	-41,39
269,162	-38,33
269,535	-36,1
269,908	-34,37
270,281	-33,41
270,654	-33,34
271,027	-34,36
271,4	-35,28
271,773	-35,83
272,146	-35,71
272,519	-35,54
272,891	-35,64
273,264	-35,95
273,637	-36,09
274,01	-36,36
274,382	-37,35
274,755	-37,91
275,127	-38,51
275,5	-39,23
275,872	-39,42
276,245	-39,79
276,617	-40,83
276,99	-41,99
277,362	-43,47
277,734	-44,17
278,107	-44,2
278,479	-43,78
278,851	-42,83
279,223	-41,97
279,596	-41,2
279,968	-40,79
280,34	-40,15
280,712	-39,05
281,084	-37,24
281,456	-35,63
281,828	-33,81
282,2	-31,17
282,572	-29,11
282,944	-27,66
283,315	-26,79
283,687	-26,1
284,059	-25,72
284,431	-25,19
284,802	-24,36
285,174	-23,66
285,546	-23,18
285,917	-22,8
286,289	-22,25
286,66	-21,77
287,032	-21,24
287,403	-20,93
287,775	-20,86
288,146	-20,94
288,518	-21,02
288,889	-21,08
289,26	-21,2
289,632	-21,76
290,003	-22,58
290,374	-23,14
290,745	-23,44
291,116	-23,5
291,487	-23,52
291,858	-23,38
292,229	-23,35
292,6	-23,38
292,971	-22,9
293,342	-22,22
293,713	-21,3
294,084	-20,49
294,455	-19,74
294,826	-19,31
295,196	-19,09
295,567	-19,06
295,938	-18,84
296,308	-18,53
296,679	-18,29
297,05	-17,96
297,42	-17,4
297,791	-16,86
298,161	-16,7
298,532	-16,39
298,902	-16,19
299,272	-15,93
299,643	-15,67
300,013	-15,23
300,383	-14,8
300,754	-14,65
301,124	-14,79
301,494	-15,09
301,864	-15,46
302,234	-15,76
302,604	-15,88
302,974	-15,77
303,344	-15,39
303,714	-15,07
304,084	-14,85
304,454	-14,77
304,824	-14,64
305,194	-14,61
305,563	-14,66
305,933	-14,41
306,303	-14,09
306,673	-13,57
307,042	-12,97
307,412	-12,29
307,781	-11,67
308,151	-11,28
308,521	-11,08
308,89	-10,87
309,259	-10,82
309,629	-10,76
309,998	-10,6
310,368	-10,5
310,737	-10,42
311,106	-10,37
311,475	-10,25
311,845	-10,23
312,214	-10,05
312,583	-9,92
312,952	-9,91
313,321	-9,83
313,69	-9,58
314,059	-9,54
314,428	-9,63
314,797	-9,95
315,166	-10,54
315,535	-11,14
315,904	-11,63
316,272	-11,83
316,641	-11,93
317,01	-11,78
317,379	-11,57
317,747	-11,35
318,116	-11
318,484	-10,7
318,853	-10,55
319,221	-10,47
319,59	-10,32
319,958	-10,21
320,327	-10,17
320,695	-10,07
321,063	-9,81
321,432	-9,63
321,8	-9,22
322,168	-8,88
322,536	-8,67
322,905	-8,11
323,273	-7,61
323,641	-7,23
324,009	-6,85
324,377	-6,56
324,745	-6,32
325,113	-5,98
325,481	-5,67
325,849	-5,56
326,216	-5,44
326,584	-5,22
326,952	-4,99
327,32	-4,75
327,687	-4,56
328,055	-4,28
328,423	-4,06
328,79	-4,04
329,158	-4,09
329,525	-4,15
329,893	-4,03
330,26	-3,82
330,628	-3,8
330,995	-3,78
331,362	-3,73
331,73	-3,73
332,097	-3,67
332,464	-3,58
332,831	-3,52
333,199	-3,49
333,566	-3,28
333,933	-2,98
334,3	-2,7
334,667	-2,58
335,034	-2,49
335,401	-2,37
335,768	-2,22
336,135	-2,03
336,502	-1,78
336,868	-1,48
337,235	-1,32
337,602	-1,2
337,969	-0,98
338,335	-0,71
338,702	-0,44
339,069	-0,22
339,435	-0,06
339,802	0,16
340,168	0,27
340,535	0,43
340,901	0,47
341,267	0,43
341,634	0,41
342	0,43
342,366	0,57
342,733	0,66
343,099	0,77
343,465	0,82
343,831	0,85
344,197	0,87
344,563	0,86
344,929	0,9
345,295	0,99
345,661	1,04
346,027	1,06
346,393	1,02
346,759	1,02
347,125	1,01
347,491	0,95
347,856	0,93
348,222	0,86
348,588	0,99
348,953	1,12
349,319	1,16
349,684	1,25
350,05	1,31
350,415	1,46
350,781	1,54
351,146	1,7
351,512	1,85
351,877	1,97
352,242	2,08
352,608	2,16
352,973	2,25
353,338	2,36
353,703	2,47
354,068	2,58
354,433	2,71
354,798	2,84
355,164	2,95
355,528	3,09
355,893	3,23
356,258	3,27
356,623	3,37
356,988	3,51
357,353	3,6
357,718	3,65
358,082	3,65
358,447	3,7
358,812	3,78
359,176	3,83
359,541	3,9
359,905	4
360,27	4,09
360,634	4,13
360,999	4,16
361,363	4,16
361,728	4,18
362,092	4,19
362,456	4,25
362,821	4,36
363,185	4,4
363,549	4,46
363,913	4,51
364,277	4,55
364,641	4,56
365,005	4,6
365,369	4,64
365,733	4,73
366,097	4,83
366,461	4,88
366,825	4,96
367,189	5,04
367,553	5,13
367,916	5,3
368,28	5,44
368,644	5,52
369,007	5,69
369,371	5,88
369,734	6,05
370,098	6,16
370,461	6,25
370,825	6,36
371,188	6,43
371,552	6,55
371,915	6,62
372,278	6,74
372,642	6,85
373,005	6,99
373,368	7,13
373,731	7,21
374,094	7,29
374,457	7,36
374,82	7,48
375,183	7,56
375,546	7,61
375,909	7,67
376,272	7,8
376,635	7,83
376,998	7,87
377,361	7,9
377,723	7,98
378,086	8,06
378,449	8,13
378,811	8,21
379,174	8,29
379,537	8,38
379,899	8,45
380,262	8,51
380,624	8,58
380,987	8,65
381,349	8,77
381,711	8,89
382,074	9
382,436	9,09
382,798	9,2
383,16	9,27
383,522	9,32
383,884	9,37
384,247	9,46
384,609	9,56
384,971	9,63
385,333	9,66
385,695	9,69
386,056	9,73
386,418	9,78
386,78	9,81
387,142	9,83
387,504	9,88
387,865	9,97
388,227	9,99
388,589	10,02
388,95	10,04
389,312	10,05
389,673	10,09
390,035	10,07
390,396	10,07
390,758	10,09
391,119	10,12
391,48	10,14
391,842	10,17
392,203	10,17
392,564	10,18
392,925	10,24
393,286	10,28
393,648	10,32
394,009	10,34
394,37	10,37
394,731	10,43
395,092	10,45
395,452	10,46
395,813	10,5
396,174	10,51
396,535	10,5
396,896	10,51
397,257	10,54
397,617	10,6
397,978	10,61
398,338	10,63
398,699	10,68
399,06	10,73
399,42	10,7
399,781	10,7
400,141	10,72
400,501	10,73
400,862	10,75
401,222	10,77
401,582	10,79
401,943	10,83
402,303	10,81
402,663	10,83
403,023	10,83
403,383	10,86
403,743	10,87
404,103	10,91
404,463	10,97
404,823	11
405,183	11,04
405,543	11,06
405,903	11,05
406,262	11,03
406,622	11,02
406,982	11,06
407,342	11,13
407,701	11,16
408,061	11,19
408,42	11,22
408,78	11,26
409,139	11,28
409,499	11,28
409,858	11,31
410,217	11,36
410,577	11,39
410,936	11,37
411,295	11,35
411,655	11,32
412,014	11,28
412,373	11,23
412,732	11,18
413,091	11,17
413,45	11,16
413,809	11,12
414,168	11,1
414,527	11,06
414,886	11
415,245	10,97
415,603	10,93
415,962	10,89
416,321	10,84
416,679	10,8
417,038	10,75
417,397	10,74
417,755	10,68
418,114	10,66
418,472	10,64
418,831	10,64
419,189	10,62
419,547	10,62
419,906	10,6
420,264	10,59
420,622	10,56
420,981	10,56
421,339	10,56
421,697	10,57
422,055	10,57
422,413	10,59
422,771	10,61
423,129	10,63
423,487	10,65
423,845	10,68
424,203	10,71
424,56	10,75
424,918	10,77
425,276	10,82
425,634	10,84
425,991	10,86
426,349	10,89
426,707	10,97
427,064	11,01
427,422	11,06
427,779	11,11
428,137	11,16
428,494	11,23
428,851	11,3
429,209	11,28
429,566	11,3
429,923	11,29
430,28	11,27
430,637	11,28
430,995	11,29
431,352	11,29
431,709	11,29
432,066	11,31
432,423	11,3
432,78	11,3
433,137	11,33
433,493	11,33
433,85	11,37
434,207	11,3
434,564	11,28
434,92	11,27
435,277	11,26
435,634	11,27
435,99	11,24
436,347	11,23
436,703	11,27
437,06	11,26
437,416	11,29
437,773	11,29
438,129	11,25
438,485	11,25
438,841	11,24
439,198	11,24
439,554	11,22
439,91	11,24
440,266	11,24
440,622	11,22
440,978	11,21
441,334	11,17
441,69	11,18
442,046	11,18
442,402	11,16
442,758	11,17
443,113	11,14
443,469	11,15
443,825	11,16
444,181	11,16
444,536	11,18
444,892	11,17
445,247	11,19
445,603	11,23
445,958	11,25
446,314	11,27
446,669	11,28
447,025	11,3
447,38	11,31
447,735	11,32
448,09	11,36
448,446	11,39
448,801	11,4
449,156	11,43
449,511	11,46
449,866	11,5
450,221	11,54
450,576	11,6
450,931	11,63
451,286	11,66
451,641	11,69
451,995	11,74
452,35	11,78
452,705	11,8
453,06	11,79
453,414	11,8
453,769	11,78
454,123	11,78
454,478	11,79
454,832	11,78
455,187	11,75
455,541	11,71
455,896	11,69
456,25	11,68
456,604	11,65
456,958	11,64
457,313	11,63
457,667	11,62
458,021	11,62
458,375	11,62
458,729	11,65
459,083	11,65
459,437	11,65
459,791	11,63
460,145	11,63
460,499	11,64
460,852	11,63
461,206	11,64
461,56	11,66
461,914	11,67
462,267	11,66
462,621	11,69
462,974	11,72
463,328	11,74
463,681	11,77
464,035	11,81
464,388	11,83
464,742	11,85
465,095	11,85
465,448	11,87
465,801	11,88
466,155	11,86
466,508	11,85
466,861	11,82
467,214	11,83
467,567	11,83
467,92	11,83
468,273	11,86
468,626	11,85
468,979	11,84
469,332	11,82
469,684	11,81
470,037	11,82
470,39	11,83
470,743	11,84
471,095	11,85
471,448	11,85
471,8	11,86
472,153	11,88
472,505	11,9
472,858	11,89
473,21	11,91
473,562	11,92
473,915	11,93
474,267	11,94
474,619	11,94
474,971	11,92
475,324	11,93
475,676	11,94
476,028	11,95
476,38	11,95
476,732	11,95
477,084	11,97
477,436	11,97
477,787	11,96
478,139	11,94
478,491	11,94
478,843	11,91
479,195	11,9
479,546	11,85
479,898	11,78
480,249	11,72
480,601	11,67
480,952	11,65
481,304	11,65
481,655	11,66
482,007	11,67
482,358	11,68
482,709	11,68
483,061	11,67
483,412	11,66
483,763	11,65
484,114	11,65
484,465	11,63
484,816	11,62
485,167	11,63
485,518	11,63
485,869	11,63
486,22	11,66
486,571	11,66
486,922	11,67
487,272	11,7
487,623	11,73
487,974	11,75
488,324	11,75
488,675	11,75
489,025	11,74
489,376	11,73
489,726	11,73
490,077	11,74
490,427	11,75
490,778	11,78
491,128	11,8
491,478	11,84
491,828	11,88
492,179	11,91
492,529	11,91
492,879	11,93
493,229	11,93
493,579	11,93
493,929	11,94
494,279	11,96
494,629	11,97
494,979	12
495,328	12,04
495,678	12,08
496,028	12,13
496,378	12,16
496,727	12,19
497,077	12,21
497,426	12,23
497,776	12,23
498,125	12,22
498,475	12,22
498,824	12,2
499,174	12,2
499,523	12,21
499,872	12,23
500,221	12,24
500,571	12,25
500,92	12,26
501,269	12,28
501,618	12,29
501,967	12,3
502,316	12,31
502,665	12,34
503,014	12,33
503,363	12,35
503,711	12,36
504,06	12,38
504,409	12,38
504,758	12,35
505,106	12,37
505,455	12,35
505,803	12,35
506,152	12,34
506,5	12,34
506,849	12,34
507,197	12,34
507,546	12,32
507,894	12,33
508,242	12,33
508,59	12,32
508,939	12,31
509,287	12,31
509,635	12,31
509,983	12,3
510,331	12,32
510,679	12,33
511,027	12,32
511,375	12,3
511,723	12,31
512,07	12,33
512,418	12,34
512,766	12,38
513,114	12,39
513,461	12,41
513,809	12,41
514,156	12,39
514,504	12,4
514,851	12,4
515,199	12,38
515,546	12,37
515,893	12,38
516,241	12,38
516,588	12,38
516,935	12,39
517,282	12,41
517,63	12,4
517,977	12,4
518,324	12,41
518,671	12,43
519,018	12,42
519,365	12,42
519,711	12,42
520,058	12,41
520,405	12,41
520,752	12,41
521,099	12,42
521,445	12,45
521,792	12,46
522,138	12,48
522,485	12,48
522,832	12,49
523,178	12,48
523,524	12,49
523,871	12,49
524,217	12,49
524,563	12,45
524,91	12,41
525,256	12,37
525,602	12,36
525,948	12,36
526,294	12,39
526,64	12,4
526,986	12,4
527,332	12,4
527,678	12,4
528,024	12,41
528,37	12,43
528,716	12,44
529,061	12,44
529,407	12,42
529,753	12,42
530,098	12,41
530,444	12,41
530,789	12,41
531,135	12,41
531,48	12,42
531,826	12,44
532,171	12,47
532,516	12,49
532,862	12,52
533,207	12,52
533,552	12,49
533,897	12,49
534,242	12,5
534,587	12,52
534,932	12,53
535,277	12,53
535,622	12,52
535,967	12,52
536,312	12,54
536,657	12,58
537,001	12,61
537,346	12,63
537,691	12,61
538,035	12,58
538,38	12,56
538,724	12,55
539,069	12,55
539,413	12,55
539,758	12,56
540,102	12,57
540,446	12,57
540,791	12,58
541,135	12,58
541,479	12,59
541,823	12,57
542,167	12,57
542,512	12,58
542,856	12,57
543,2	12,56
543,543	12,54
543,887	12,54
544,231	12,55
544,575	12,56
544,919	12,6
545,262	12,65
545,606	12,69
545,95	12,7
546,293	12,71
546,637	12,72
546,98	12,74
547,324	12,73
547,667	12,79
548,011	12,79
548,354	12,81
548,697	12,8
549,04	12,8
549,384	12,79
549,727	12,77
550,07	12,79
550,413	12,79
550,756	12,81
551,099	12,81
551,442	12,79
551,785	12,81
552,128	12,79
552,47	12,76
552,813	12,73
553,156	12,73
553,499	12,74
553,841	12,74
554,184	12,73
554,526	12,71
554,869	12,66
555,211	12,65
555,554	12,63
555,896	12,6
556,238	12,61
556,581	12,6
556,923	12,58
557,265	12,56
557,607	12,59
557,949	12,6
558,291	12,55
558,633	12,54
558,975	12,51
559,317	12,5
559,659	12,49
560,001	12,51
560,343	12,5
560,685	12,47
561,026	12,44
561,368	12,41
561,71	12,39
562,051	12,36
562,393	12,37
562,734	12,36
563,076	12,35
563,417	12,33
563,759	12,35
564,1	12,36
564,441	12,35
564,782	12,29
565,124	12,26
565,465	12,27
565,806	12,26
566,147	12,22
566,488	12,2
566,829	12,2
567,17	12,18
567,511	12,16
567,851	12,14
568,192	12,12
568,533	12,11
568,874	12,11
569,214	12,12
569,555	12,09
569,895	12,07
570,236	12,04
570,576	12,01
570,917	11,99
571,257	11,95
571,598	11,92
571,938	11,92
572,278	11,93
572,618	11,91
572,959	11,89
573,299	11,91
573,639	11,91
573,979	11,9
574,319	11,89
574,659	11,87
574,999	11,87
575,339	11,87
575,678	11,87
576,018	11,85
576,358	11,82
576,698	11,81
577,037	11,81
577,377	11,8
577,716	11,78
578,056	11,74
578,395	11,73
578,735	11,7
579,074	11,69
579,413	11,66
579,753	11,63
580,092	11,62
580,431	11,57
580,77	11,54
581,109	11,5
581,448	11,45
581,787	11,43
582,126	11,43
582,465	11,41
582,804	11,4
583,143	11,4
583,482	11,4
583,82	11,41
584,159	11,42
584,498	11,39
584,836	11,39
585,175	11,4
585,514	11,4
585,852	11,4
586,19	11,4
586,529	11,35
586,867	11,37
587,205	11,37
587,544	11,38
587,882	11,38
588,22	11,4
588,558	11,44
588,896	11,44
589,234	11,43
589,572	11,43
589,91	11,41
590,248	11,37
590,586	11,34
590,924	11,33
591,262	11,31
591,599	11,33
591,937	11,34
592,275	11,35
592,612	11,35
592,95	11,36
593,287	11,37
593,625	11,4
593,962	11,42
594,299	11,43
594,637	11,47
594,974	11,51
595,311	11,54
595,648	11,54
595,985	11,54
596,322	11,53
596,659	11,55
596,996	11,56
597,333	11,57
597,67	11,58
598,007	11,58
598,344	11,6
598,681	11,6
599,017	11,58
599,354	11,58
599,691	11,56
600,027	11,55
600,364	11,54
600,7	11,58
601,037	11,57
601,373	11,6
601,71	11,62
602,046	11,6
602,382	11,57
602,718	11,57
603,054	11,59
603,391	11,62
603,727	11,61
604,063	11,61
604,399	11,64
604,735	11,67
605,071	11,7
605,406	11,7
605,742	11,71
606,078	11,75
606,414	11,74
606,749	11,77
607,085	11,8
607,421	11,82
607,756	11,82
608,092	11,83
608,427	11,8
608,762	11,76
609,098	11,74
609,433	11,72
609,768	11,72
610,104	11,7
610,439	11,67
610,774	11,67
611,109	11,66
611,444	11,65
611,779	11,63
612,114	11,6
612,449	11,58
612,784	11,54
613,118	11,5
613,453	11,49
613,788	11,44
614,123	11,39
614,457	11,32
614,792	11,23
615,126	11,19
615,461	11,17
615,795	11,17
616,13	11,17
616,464	11,19
616,798	11,16
617,132	11,14
617,467	11,14
617,801	11,14
618,135	11,12
618,469	11,11
618,803	11,11
619,137	11,13
619,471	11,16
619,805	11,16
620,139	11,18
620,472	11,2
620,806	11,2
621,14	11,21
621,473	11,23
621,807	11,26
622,141	11,28
622,474	11,27
622,808	11,27
623,141	11,28
623,474	11,28
623,808	11,3
624,141	11,34
624,474	11,4
624,807	11,43
625,141	11,47
625,474	11,48
625,807	11,5
626,14	11,52
626,473	11,53
626,806	11,53
627,138	11,54
627,471	11,52
627,804	11,53
628,137	11,55
628,469	11,56
628,802	11,55
629,135	11,54
629,467	11,56
629,8	11,55
630,132	11,54
630,465	11,55
630,797	11,55
631,129	11,54
631,461	11,52
631,794	11,51
632,126	11,47
632,458	11,47
632,79	11,45
633,122	11,42
633,454	11,39
633,786	11,4
634,118	11,4
634,45	11,44
634,781	11,47
635,113	11,46
635,445	11,48
635,777	11,52
636,108	11,53
636,44	11,52
636,771	11,54
637,103	11,53
637,434	11,49
637,765	11,46
638,097	11,43
638,428	11,41
638,759	11,38
639,09	11,36
639,422	11,34
639,753	11,34
640,084	11,32
640,415	11,32
640,746	11,3
641,077	11,31
641,407	11,28
641,738	11,26
642,069	11,24
642,4	11,22
642,73	11,21
643,061	11,2
643,392	11,17
643,722	11,16
644,053	11,16
644,383	11,17
644,713	11,18
645,044	11,18
645,374	11,18
645,704	11,16
646,034	11,2
