Data from zc74051_1_Reflection_00004.txt Node
Date: Thu Mar 12 15:03:34 ART 2020
User: Ana
Spectrometer: USB2E3644
Trigger mode: 4
Integration Time (sec): 5,000000E-2
Scans to average: 10
Electric dark correction enabled: true
Nonlinearity correction enabled: false
Boxcar width: 10
XAxis mode: Wavelengths
Number of Pixels in Spectrum: 2048
>>>>>Begin Spectral Data<<<<<
178,315	134,68
178,696	146,4
179,076	170,81
179,457	172,67
179,838	164,1
180,218	258,59
180,599	-511,11
180,979	36,84
181,36	344,44
181,74	183,84
182,121	148,15
182,501	116,67
182,881	112,27
183,262	109,26
183,642	106,99
184,022	106,24
184,402	106,15
184,783	104,8
185,163	102,78
185,543	101,4
185,923	100,39
186,303	100,6
186,683	103,29
187,063	105,73
187,443	105,84
187,823	102,9
188,203	101,75
188,583	102,27
188,963	101,78
189,343	99,77
189,723	98,77
190,102	98,15
190,482	97,44
190,862	97,34
191,242	98,01
191,621	99,08
192,001	100,95
192,38	101,49
192,76	102,41
193,14	103,57
193,519	104,71
193,898	106,05
194,278	106,88
194,657	106,13
195,037	105,13
195,416	104,5
195,795	105,48
196,175	107,19
196,554	107,3
196,933	107,38
197,312	108,75
197,692	109,93
198,071	111
198,45	112,57
198,829	113,91
199,208	114,27
199,587	114,71
199,966	115,67
200,345	116,79
200,724	117,39
201,103	117,49
201,482	117,4
201,86	116,72
202,239	115,47
202,618	115,04
202,997	115,89
203,375	116,24
203,754	115,53
204,133	114,28
204,511	112,58
204,89	110,97
205,269	109,44
205,647	108,26
206,026	107,54
206,404	107,44
206,782	107,09
207,161	106,54
207,539	106,06
207,918	104,85
208,296	103,92
208,674	104,23
209,052	105,09
209,431	105,49
209,809	106,01
210,187	107,08
210,565	108,29
210,943	108,08
211,321	108,25
211,699	109,11
212,077	109,61
212,455	110,69
212,833	111,69
213,211	112,01
213,589	112,28
213,967	112,16
214,345	110,63
214,722	109,27
215,1	108,99
215,478	109,04
215,855	109,85
216,233	110,64
216,611	110,47
216,988	110,18
217,366	109,47
217,743	108,89
218,121	107,66
218,498	105,77
218,876	104,57
219,253	103,57
219,631	102,3
220,008	102,55
220,385	102,91
220,762	103,09
221,14	103,02
221,517	103,2
221,894	103,73
222,271	105,02
222,648	106,41
223,025	106,51
223,402	106,85
223,78	105,67
224,157	103,4
224,533	101,82
224,91	100,86
225,287	100,96
225,664	101,51
226,041	103,1
226,418	104,94
226,795	106,41
227,171	107,54
227,548	108,84
227,925	109
228,301	108,43
228,678	107,26
229,055	107,19
229,431	107,31
229,808	107,47
230,184	107,14
230,561	107,44
230,937	108,52
231,313	109,1
231,69	111,01
232,066	114,98
232,442	118,5
232,819	120,88
233,195	122,5
233,571	123,9
233,947	123,85
234,323	124,38
234,699	125,43
235,075	126,84
235,451	129,1
235,827	131,83
236,203	135,54
236,579	141,58
236,955	147,14
237,331	153,08
237,707	160,58
238,083	169,89
238,459	181,03
238,834	197,4
239,21	220,11
239,586	246,62
239,961	268,46
240,337	285,23
240,713	296,96
241,088	310,69
241,464	323,55
241,839	341,69
242,215	372,22
242,59	457,27
242,965	805,86
243,341	-4302,15
243,716	-532,4
244,091	-304,07
244,467	-226,37
244,842	-184,45
245,217	-155,68
245,592	-140,94
245,967	-138,13
246,343	-133,4
246,718	-131,05
247,093	-134,79
247,468	-139,24
247,843	-138,52
248,218	-131,68
248,593	-119,5
248,967	-108,34
249,342	-101,9
249,717	-97,81
250,092	-94,97
250,467	-96,27
250,841	-104,3
251,216	-121,95
251,591	-150,85
251,965	-184,11
252,34	-216,7
252,714	-258,69
253,089	-311,42
253,463	-353,75
253,838	-356,59
254,212	-348,77
254,587	-317,18
254,961	-255,53
255,335	-199,61
255,71	-153,13
256,084	-110,49
256,458	-84,39
256,832	-70,18
257,206	-62,45
257,581	-58,56
257,955	-56,52
258,329	-54,31
258,703	-51,66
259,077	-49,87
259,451	-48,04
259,825	-47,56
260,199	-47,92
260,572	-47,48
260,946	-47,53
261,32	-47,12
261,694	-45,85
262,068	-45,18
262,441	-44,41
262,815	-44,06
263,189	-43,37
263,562	-44,03
263,936	-47,5
264,309	-52,95
264,683	-58,89
265,056	-62,52
265,43	-63,77
265,803	-63
266,176	-61,37
266,55	-60,6
266,923	-59,44
267,296	-57,78
267,67	-54,98
268,043	-52,27
268,416	-48,9
268,789	-45,08
269,162	-41,62
269,535	-39,25
269,908	-37,32
270,281	-36,26
270,654	-36,18
271,027	-36,88
271,4	-37,25
271,773	-37,43
272,146	-37,93
272,519	-38,24
272,891	-38,41
273,264	-38,44
273,637	-38,26
274,01	-38,21
274,382	-39,05
274,755	-39,41
275,127	-39,75
275,5	-40,19
275,872	-40,52
276,245	-41,25
276,617	-42,71
276,99	-44,31
277,362	-45,8
277,734	-46,4
278,107	-46,36
278,479	-45,61
278,851	-44,54
279,223	-43,72
279,596	-43,01
279,968	-42,35
280,34	-41,32
280,712	-39,97
281,084	-38,28
281,456	-36,73
281,828	-34,83
282,2	-32
282,572	-29,92
282,944	-28,42
283,315	-27,53
283,687	-26,76
284,059	-26,39
284,431	-25,99
284,802	-25,24
285,174	-24,55
285,546	-24,03
285,917	-23,4
286,289	-22,88
286,66	-22,58
287,032	-22,13
287,403	-21,7
287,775	-21,22
288,146	-21,18
288,518	-21,45
288,889	-21,53
289,26	-21,68
289,632	-22,23
290,003	-22,98
290,374	-23,41
290,745	-23,76
291,116	-23,82
291,487	-23,7
291,858	-23,3
292,229	-22,86
292,6	-22,47
292,971	-21,65
293,342	-20,86
293,713	-20,1
294,084	-19,38
294,455	-18,58
294,826	-18,18
295,196	-18,06
295,567	-18,25
295,938	-18,07
296,308	-17,68
296,679	-17,45
297,05	-17,2
297,42	-16,74
297,791	-16,23
298,161	-16,05
298,532	-15,66
298,902	-15,22
299,272	-14,85
299,643	-14,46
300,013	-13,86
300,383	-13,35
300,754	-13,3
301,124	-13,33
301,494	-13,4
301,864	-13,56
302,234	-13,81
302,604	-13,84
302,974	-13,73
303,344	-13,47
303,714	-13,19
304,084	-12,85
304,454	-12,71
304,824	-12,64
305,194	-12,73
305,563	-12,73
305,933	-12,59
306,303	-12,39
306,673	-12,03
307,042	-11,64
307,412	-11,28
307,781	-10,97
308,151	-10,91
308,521	-10,73
308,89	-10,53
309,259	-10,59
309,629	-10,57
309,998	-10,47
310,368	-10,42
310,737	-10,27
311,106	-10,1
311,475	-9,98
311,845	-10,06
312,214	-9,99
312,583	-9,97
312,952	-9,94
313,321	-9,97
313,69	-9,79
314,059	-9,71
314,428	-9,83
314,797	-9,97
315,166	-10,22
315,535	-10,72
315,904	-11,16
316,272	-11,46
316,641	-11,76
317,01	-11,74
317,379	-11,77
317,747	-11,66
318,116	-11,33
318,484	-11,07
318,853	-10,91
319,221	-10,82
319,59	-10,76
319,958	-10,59
320,327	-10,3
320,695	-9,99
321,063	-9,69
321,432	-9,43
321,8	-9,09
322,168	-8,81
322,536	-8,67
322,905	-8,32
323,273	-7,86
323,641	-7,42
324,009	-7,06
324,377	-6,71
324,745	-6,43
325,113	-6,02
325,481	-5,67
325,849	-5,51
326,216	-5,32
326,584	-5,07
326,952	-4,88
327,32	-4,6
327,687	-4,44
328,055	-4,19
328,423	-3,96
328,79	-3,85
329,158	-3,79
329,525	-3,73
329,893	-3,61
330,26	-3,47
330,628	-3,36
330,995	-3,22
331,362	-3,12
331,73	-3,06
332,097	-2,92
332,464	-2,74
332,831	-2,56
333,199	-2,49
333,566	-2,34
333,933	-2,2
334,3	-2,02
334,667	-1,85
335,034	-1,76
335,401	-1,65
335,768	-1,53
336,135	-1,44
336,502	-1,29
336,868	-1,14
337,235	-1,04
337,602	-0,94
337,969	-0,78
338,335	-0,65
338,702	-0,5
339,069	-0,4
339,435	-0,34
339,802	-0,26
340,168	-0,2
340,535	-0,07
340,901	-0,03
341,267	-0,03
341,634	-0,01
342	0,02
342,366	0,11
342,733	0,16
343,099	0,3
343,465	0,32
343,831	0,34
344,197	0,38
344,563	0,35
344,929	0,36
345,295	0,47
345,661	0,61
346,027	0,67
346,393	0,68
346,759	0,78
347,125	0,89
347,491	0,94
347,856	0,93
348,222	0,85
348,588	0,96
348,953	1,11
349,319	1,16
349,684	1,22
350,05	1,28
350,415	1,42
350,781	1,48
351,146	1,61
351,512	1,73
351,877	1,84
352,242	1,97
352,608	2,09
352,973	2,17
353,338	2,24
353,703	2,32
354,068	2,35
354,433	2,38
354,798	2,4
355,164	2,45
355,528	2,56
355,893	2,64
356,258	2,67
356,623	2,74
356,988	2,88
357,353	3
357,718	3,1
358,082	3,23
358,447	3,34
358,812	3,5
359,176	3,61
359,541	3,72
359,905	3,83
360,27	3,92
360,634	4
360,999	4,1
361,363	4,21
361,728	4,37
362,092	4,52
362,456	4,64
362,821	4,75
363,185	4,86
363,549	5,01
363,913	5,14
364,277	5,21
364,641	5,24
365,005	5,32
365,369	5,38
365,733	5,46
366,097	5,53
366,461	5,55
366,825	5,6
367,189	5,63
367,553	5,72
367,916	5,89
368,28	5,99
368,644	6,07
369,007	6,15
369,371	6,26
369,734	6,35
370,098	6,42
370,461	6,5
370,825	6,57
371,188	6,63
371,552	6,67
371,915	6,73
372,278	6,89
372,642	7,01
373,005	7,11
373,368	7,2
373,731	7,28
374,094	7,39
374,457	7,48
374,82	7,63
375,183	7,7
375,546	7,71
375,909	7,76
376,272	7,85
376,635	7,96
376,998	8,01
377,361	8,05
377,723	8,16
378,086	8,24
378,449	8,3
378,811	8,38
379,174	8,51
379,537	8,59
379,899	8,6
380,262	8,61
380,624	8,66
380,987	8,69
381,349	8,75
381,711	8,79
382,074	8,86
382,436	8,93
382,798	9,09
383,16	9,14
383,522	9,19
383,884	9,22
384,247	9,2
384,609	9,25
384,971	9,31
385,333	9,31
385,695	9,33
386,056	9,36
386,418	9,35
386,78	9,34
387,142	9,37
387,504	9,42
387,865	9,47
388,227	9,48
388,589	9,53
388,95	9,57
389,312	9,58
389,673	9,61
390,035	9,58
390,396	9,55
390,758	9,57
391,119	9,57
391,48	9,58
391,842	9,64
392,203	9,67
392,564	9,72
392,925	9,8
393,286	9,87
393,648	9,92
394,009	9,99
394,37	10,01
394,731	10,04
395,092	10,05
395,452	10,08
395,813	10,14
396,174	10,15
396,535	10,13
396,896	10,12
397,257	10,15
397,617	10,21
397,978	10,21
398,338	10,26
398,699	10,32
399,06	10,41
399,42	10,41
399,781	10,42
400,141	10,4
400,501	10,38
400,862	10,36
401,222	10,36
401,582	10,35
401,943	10,42
402,303	10,45
402,663	10,51
403,023	10,53
403,383	10,52
403,743	10,53
404,103	10,56
404,463	10,61
404,823	10,66
405,183	10,7
405,543	10,72
405,903	10,7
406,262	10,69
406,622	10,64
406,982	10,67
407,342	10,69
407,701	10,7
408,061	10,73
408,42	10,78
408,78	10,81
409,139	10,84
409,499	10,84
409,858	10,84
410,217	10,82
410,577	10,83
410,936	10,83
411,295	10,82
411,655	10,81
412,014	10,79
412,373	10,74
412,732	10,68
413,091	10,66
413,45	10,64
413,809	10,61
414,168	10,57
414,527	10,53
414,886	10,46
415,245	10,41
415,603	10,39
415,962	10,35
416,321	10,3
416,679	10,26
417,038	10,2
417,397	10,15
417,755	10,13
418,114	10,1
418,472	10,08
418,831	10,05
419,189	10,04
419,547	10,03
419,906	10,02
420,264	10,01
420,622	9,98
420,981	9,98
421,339	9,97
421,697	9,98
422,055	9,98
422,413	10
422,771	10,03
423,129	10,04
423,487	10,05
423,845	10,08
424,203	10,1
424,56	10,13
424,918	10,17
425,276	10,21
425,634	10,24
425,991	10,28
426,349	10,32
426,707	10,37
427,064	10,41
427,422	10,46
427,779	10,5
428,137	10,57
428,494	10,62
428,851	10,66
429,209	10,68
429,566	10,7
429,923	10,72
430,28	10,71
430,637	10,72
430,995	10,71
431,352	10,69
431,709	10,67
432,066	10,69
432,423	10,68
432,78	10,67
433,137	10,68
433,493	10,66
433,85	10,67
434,207	10,63
434,564	10,62
434,92	10,61
435,277	10,61
435,634	10,6
435,99	10,59
436,347	10,58
436,703	10,6
437,06	10,57
437,416	10,57
437,773	10,56
438,129	10,54
438,485	10,55
438,841	10,55
439,198	10,56
439,554	10,53
439,91	10,53
440,266	10,53
440,622	10,52
440,978	10,53
441,334	10,51
441,69	10,52
442,046	10,51
442,402	10,49
442,758	10,48
443,113	10,48
443,469	10,47
443,825	10,46
444,181	10,46
444,536	10,48
444,892	10,47
445,247	10,5
445,603	10,53
445,958	10,53
446,314	10,55
446,669	10,55
447,025	10,57
447,38	10,58
447,735	10,6
448,09	10,61
448,446	10,62
448,801	10,63
449,156	10,65
449,511	10,68
449,866	10,73
450,221	10,78
450,576	10,81
450,931	10,87
451,286	10,89
451,641	10,92
451,995	10,97
452,35	11,01
452,705	11,03
453,06	11,03
453,414	11,04
453,769	11,04
454,123	11,05
454,478	11,06
454,832	11,06
455,187	11,05
455,541	11,04
455,896	11,02
456,25	11
456,604	10,97
456,958	10,96
457,313	10,92
457,667	10,9
458,021	10,9
458,375	10,89
458,729	10,91
459,083	10,92
459,437	10,93
459,791	10,92
460,145	10,92
460,499	10,92
460,852	10,92
461,206	10,93
461,56	10,94
461,914	10,94
462,267	10,95
462,621	10,95
462,974	10,96
463,328	10,98
463,681	11,03
464,035	11,07
464,388	11,1
464,742	11,14
465,095	11,15
465,448	11,18
465,801	11,16
466,155	11,15
466,508	11,13
466,861	11,12
467,214	11,11
467,567	11,11
467,92	11,12
468,273	11,12
468,626	11,09
468,979	11,07
469,332	11,08
469,684	11,07
470,037	11,07
470,39	11,09
470,743	11,11
471,095	11,1
471,448	11,09
471,8	11,07
472,153	11,08
472,505	11,08
472,858	11,09
473,21	11,12
473,562	11,14
473,915	11,14
474,267	11,15
474,619	11,15
474,971	11,14
475,324	11,13
475,676	11,14
476,028	11,17
476,38	11,19
476,732	11,18
477,084	11,19
477,436	11,18
477,787	11,16
478,139	11,14
478,491	11,14
478,843	11,12
479,195	11,15
479,546	11,11
479,898	11,06
480,249	10,99
480,601	10,97
480,952	10,94
481,304	10,92
481,655	10,9
482,007	10,88
482,358	10,85
482,709	10,85
483,061	10,83
483,412	10,82
483,763	10,81
484,114	10,81
484,465	10,8
484,816	10,79
485,167	10,78
485,518	10,79
485,869	10,77
486,22	10,78
486,571	10,77
486,922	10,78
487,272	10,8
487,623	10,82
487,974	10,81
488,324	10,81
488,675	10,82
489,025	10,83
489,376	10,84
489,726	10,87
490,077	10,88
490,427	10,89
490,778	10,9
491,128	10,92
491,478	10,93
491,828	10,97
492,179	11,01
492,529	11,03
492,879	11,04
493,229	11,08
493,579	11,09
493,929	11,1
494,279	11,11
494,629	11,12
494,979	11,14
495,328	11,17
495,678	11,21
496,028	11,24
496,378	11,26
496,727	11,3
497,077	11,31
497,426	11,34
497,776	11,33
498,125	11,32
498,475	11,31
498,824	11,31
499,174	11,3
499,523	11,3
499,872	11,32
500,221	11,34
500,571	11,36
500,92	11,36
501,269	11,39
501,618	11,38
501,967	11,39
502,316	11,37
502,665	11,37
503,014	11,38
503,363	11,38
503,711	11,39
504,06	11,38
504,409	11,39
504,758	11,36
505,106	11,39
505,455	11,41
505,803	11,42
506,152	11,42
506,5	11,41
506,849	11,41
507,197	11,39
507,546	11,37
507,894	11,36
508,242	11,35
508,59	11,33
508,939	11,32
509,287	11,34
509,635	11,35
509,983	11,37
510,331	11,37
510,679	11,38
511,027	11,39
511,375	11,38
511,723	11,41
512,07	11,41
512,418	11,42
512,766	11,44
513,114	11,46
513,461	11,48
513,809	11,48
514,156	11,47
514,504	11,48
514,851	11,49
515,199	11,48
515,546	11,48
515,893	11,47
516,241	11,48
516,588	11,48
516,935	11,5
517,282	11,51
517,63	11,52
517,977	11,53
518,324	11,55
518,671	11,56
519,018	11,56
519,365	11,58
519,711	11,58
520,058	11,58
520,405	11,59
520,752	11,58
521,099	11,58
521,445	11,6
521,792	11,61
522,138	11,6
522,485	11,62
522,832	11,63
523,178	11,62
523,524	11,61
523,871	11,61
524,217	11,61
524,563	11,57
524,91	11,51
525,256	11,49
525,602	11,45
525,948	11,44
526,294	11,42
526,64	11,41
526,986	11,39
527,332	11,37
527,678	11,37
528,024	11,37
528,37	11,38
528,716	11,38
529,061	11,38
529,407	11,38
529,753	11,37
530,098	11,36
530,444	11,37
530,789	11,37
531,135	11,37
531,48	11,36
531,826	11,37
532,171	11,39
532,516	11,38
532,862	11,4
533,207	11,41
533,552	11,42
533,897	11,42
534,242	11,43
534,587	11,45
534,932	11,46
535,277	11,46
535,622	11,46
535,967	11,48
536,312	11,5
536,657	11,52
537,001	11,56
537,346	11,58
537,691	11,59
538,035	11,58
538,38	11,58
538,724	11,58
539,069	11,59
539,413	11,61
539,758	11,61
540,102	11,62
540,446	11,6
540,791	11,61
541,135	11,61
541,479	11,62
541,823	11,62
542,167	11,61
542,512	11,63
542,856	11,61
543,2	11,59
543,543	11,58
543,887	11,57
544,231	11,56
544,575	11,55
544,919	11,56
545,262	11,6
545,606	11,62
545,95	11,64
546,293	11,65
546,637	11,66
546,98	11,69
547,324	11,68
547,667	11,73
548,011	11,73
548,354	11,75
548,697	11,75
549,04	11,76
549,384	11,78
549,727	11,75
550,07	11,77
550,413	11,77
550,756	11,77
551,099	11,77
551,442	11,76
551,785	11,81
552,128	11,8
552,47	11,78
552,813	11,75
553,156	11,75
553,499	11,72
553,841	11,72
554,184	11,68
554,526	11,67
554,869	11,64
555,211	11,62
555,554	11,61
555,896	11,6
556,238	11,57
556,581	11,56
556,923	11,52
557,265	11,5
557,607	11,48
557,949	11,5
558,291	11,48
558,633	11,47
558,975	11,43
559,317	11,42
559,659	11,39
560,001	11,37
560,343	11,33
560,685	11,32
561,026	11,28
561,368	11,28
561,71	11,24
562,051	11,22
562,393	11,22
562,734	11,19
563,076	11,17
563,417	11,14
563,759	11,13
564,1	11,14
564,441	11,12
564,782	11,08
565,124	11,02
565,465	11,03
565,806	11,02
566,147	10,99
566,488	10,96
566,829	10,96
567,17	10,94
567,511	10,95
567,851	10,94
568,192	10,94
568,533	10,94
568,874	10,94
569,214	10,94
569,555	10,91
569,895	10,9
570,236	10,87
570,576	10,87
570,917	10,85
571,257	10,8
571,598	10,81
571,938	10,82
572,278	10,83
572,618	10,82
572,959	10,83
573,299	10,83
573,639	10,82
573,979	10,79
574,319	10,79
574,659	10,78
574,999	10,77
575,339	10,74
575,678	10,73
576,018	10,71
576,358	10,68
576,698	10,67
577,037	10,65
577,377	10,64
577,716	10,64
578,056	10,64
578,395	10,65
578,735	10,62
579,074	10,62
579,413	10,59
579,753	10,55
580,092	10,51
580,431	10,49
580,77	10,49
581,109	10,5
581,448	10,48
581,787	10,43
582,126	10,4
582,465	10,39
582,804	10,37
583,143	10,39
583,482	10,4
583,82	10,39
584,159	10,39
584,498	10,4
584,836	10,38
585,175	10,33
585,514	10,32
585,852	10,33
586,19	10,34
586,529	10,32
586,867	10,33
587,205	10,35
587,544	10,36
587,882	10,35
588,22	10,33
588,558	10,32
588,896	10,34
589,234	10,32
589,572	10,33
589,91	10,32
590,248	10,28
590,586	10,26
590,924	10,25
591,262	10,27
591,599	10,26
591,937	10,26
592,275	10,28
592,612	10,3
592,95	10,31
593,287	10,31
593,625	10,33
593,962	10,32
594,299	10,33
594,637	10,33
594,974	10,36
595,311	10,38
595,648	10,4
595,985	10,41
596,322	10,41
596,659	10,42
596,996	10,41
597,333	10,42
597,67	10,4
598,007	10,4
598,344	10,38
598,681	10,39
599,017	10,37
599,354	10,35
599,691	10,33
600,027	10,34
600,364	10,33
600,7	10,34
601,037	10,36
601,373	10,4
601,71	10,38
602,046	10,39
602,382	10,37
602,718	10,37
603,054	10,36
603,391	10,37
603,727	10,38
604,063	10,4
604,399	10,43
604,735	10,46
605,071	10,47
605,406	10,47
605,742	10,48
606,078	10,52
606,414	10,56
606,749	10,57
607,085	10,58
607,421	10,56
607,756	10,55
608,092	10,56
608,427	10,51
608,762	10,52
609,098	10,5
609,433	10,49
609,768	10,49
610,104	10,46
610,439	10,46
610,774	10,45
611,109	10,43
611,444	10,4
611,779	10,36
612,114	10,36
612,449	10,36
612,784	10,35
613,118	10,31
613,453	10,27
613,788	10,22
614,123	10,16
614,457	10,12
614,792	10,1
615,126	10,09
615,461	10,1
615,795	10,08
616,13	10,05
616,464	10,04
616,798	10,02
617,132	10,03
617,467	10
617,801	9,98
618,135	9,96
618,469	9,95
618,803	9,99
619,137	10
619,471	9,98
619,805	9,95
620,139	9,9
620,472	9,91
620,806	9,94
621,14	9,95
621,473	9,94
621,807	9,92
622,141	9,87
622,474	9,84
622,808	9,84
623,141	9,84
623,474	9,87
623,808	9,92
624,141	9,98
624,474	10,04
624,807	10,09
625,141	10,11
625,474	10,14
625,807	10,16
626,14	10,17
626,473	10,18
626,806	10,19
627,138	10,22
627,471	10,23
627,804	10,21
628,137	10,23
628,469	10,24
628,802	10,23
629,135	10,26
629,467	10,27
629,8	10,28
630,132	10,31
630,465	10,28
630,797	10,23
631,129	10,19
631,461	10,16
631,794	10,14
632,126	10,13
632,458	10,14
632,79	10,15
633,122	10,15
633,454	10,16
633,786	10,16
634,118	10,17
634,45	10,2
634,781	10,23
635,113	10,23
635,445	10,24
635,777	10,27
636,108	10,25
636,44	10,23
636,771	10,22
637,103	10,19
637,434	10,19
637,765	10,22
638,097	10,2
638,428	10,16
638,759	10,15
639,09	10,17
639,422	10,16
639,753	10,14
640,084	10,11
640,415	10,09
640,746	10,08
641,077	10,06
641,407	10,01
641,738	9,98
642,069	9,97
642,4	10
642,73	10
643,061	10,04
643,392	10,07
643,722	10,09
644,053	10,11
644,383	10,09
644,713	10,08
645,044	10,09
645,374	10,12
645,704	10,12
646,034	10,09
646,365	10,05
646,695	10,02
