Data from zc74019_3_Reflection_00005.txt Node
Date: Thu Mar 12 14:42:58 ART 2020
User: Ana
Spectrometer: USB2E3644
Trigger mode: 4
Integration Time (sec): 5,000000E-2
Scans to average: 10
Electric dark correction enabled: true
Nonlinearity correction enabled: false
Boxcar width: 10
XAxis mode: Wavelengths
Number of Pixels in Spectrum: 2048
>>>>>Begin Spectral Data<<<<<
178,315	110,1
178,696	104,95
179,076	90,66
179,457	65,74
179,838	52,03
180,218	34,39
180,599	-57,78
180,979	51,72
181,36	82,22
181,74	151,59
182,121	178,21
182,501	177,99
182,881	186,76
183,262	172,17
183,642	166,16
184,022	160,59
184,402	159,85
184,783	156,29
185,163	147,95
185,543	148,92
185,923	152,6
186,303	157,21
186,683	158,1
187,063	156,68
187,443	155,7
187,823	162,86
188,203	169,57
188,583	173,71
188,963	172,63
189,343	169,35
189,723	166,21
190,102	161,28
190,482	155,12
190,862	150,55
191,242	148,81
191,621	149,08
192,001	146,6
192,38	145,1
192,76	142,73
193,14	139,88
193,519	138,25
193,898	138,55
194,278	135,83
194,657	131,98
195,037	129,54
195,416	125,87
195,795	123,19
196,175	123,04
196,554	123,58
196,933	124,81
197,312	126,1
197,692	126,26
198,071	127,61
198,45	128,41
198,829	130,15
199,208	130,59
199,587	129,79
199,966	128,95
200,345	127,88
200,724	129,32
201,103	131,53
201,482	131,58
201,86	129,36
202,239	128,78
202,618	129,21
202,997	129,5
203,375	130,32
203,754	131,39
204,133	130,19
204,511	127,4
204,89	126,67
205,269	126,74
205,647	126,99
206,026	127,46
206,404	129,29
206,782	129,98
207,161	130,87
207,539	130,8
207,918	131,81
208,296	132,33
208,674	131,69
209,052	132,03
209,431	134,9
209,809	139,62
210,187	143,44
210,565	146,01
210,943	147,16
211,321	148,03
211,699	147,72
212,077	148,02
212,455	149,75
212,833	153,1
213,211	154,54
213,589	156,99
213,967	158,14
214,345	154,83
214,722	148,75
215,1	145,66
215,478	144,76
215,855	144,31
216,233	144,22
216,611	142,16
216,988	138,85
217,366	135,52
217,743	134,54
218,121	133,49
218,498	132,92
218,876	132,41
219,253	131,58
219,631	130,15
220,008	130,53
220,385	132,09
220,762	129,4
221,14	126,6
221,517	123,21
221,894	121,9
222,271	123,83
222,648	128,24
223,025	130,16
223,402	130,56
223,78	131,57
224,157	135,44
224,533	141,44
224,91	149,33
225,287	156,18
225,664	161,76
226,041	167,7
226,418	172,45
226,795	176,4
227,171	183,8
227,548	190,73
227,925	192,33
228,301	195,66
228,678	199,1
229,055	199,36
229,431	203,29
229,808	205,68
230,184	203,95
230,561	207,33
230,937	215,91
231,313	225,47
231,69	227,32
232,066	225,83
232,442	216,3
232,819	210,22
233,195	205,28
233,571	202,76
233,947	197,68
234,323	196,96
234,699	198,62
235,075	201,29
235,451	205,54
235,827	210,24
236,203	217,28
236,579	231,36
236,955	253,92
237,331	280,7
237,707	327,57
238,083	410,85
238,459	547,76
238,834	978,85
239,21	6082,22
239,586	-1405,13
239,961	-811,8
240,337	-581,86
240,713	-501,28
241,088	-464,81
241,464	-435,84
241,839	-400,99
242,215	-335,56
242,59	-266,03
242,965	-186,77
243,341	-131,27
243,716	-97,64
244,091	-81,9
244,467	-72,59
244,842	-65,49
245,217	-60,17
245,592	-56,98
245,967	-56,54
246,343	-56,09
246,718	-55,49
247,093	-56,38
247,468	-57,19
247,843	-55,92
248,218	-53,18
248,593	-48,63
248,967	-44,41
249,342	-42,49
249,717	-41,68
250,092	-41,87
250,467	-43,08
250,841	-46,31
251,216	-52,17
251,591	-60,84
251,965	-68,41
252,34	-73,36
252,714	-80,27
253,089	-85
253,463	-87,96
253,838	-87,15
254,212	-84,47
254,587	-81,78
254,961	-75,21
255,335	-67,19
255,71	-58,15
256,084	-47,96
256,458	-40,81
256,832	-36,26
257,206	-33,42
257,581	-31,45
257,955	-29,93
258,329	-28,43
258,703	-27,01
259,077	-25,93
259,451	-24,61
259,825	-24,09
260,199	-24,52
260,572	-24,19
260,946	-23,83
261,32	-23,3
261,694	-22,5
262,068	-22,15
262,441	-21,92
262,815	-21,98
263,189	-21,64
263,562	-21,68
263,936	-23,11
264,309	-25,7
264,683	-27,99
265,056	-28,84
265,43	-29,1
265,803	-28,89
266,176	-28,59
266,55	-28,11
266,923	-27,52
267,296	-26,89
267,67	-25,7
268,043	-24,42
268,416	-22,94
268,789	-21,78
269,162	-20,74
269,535	-19,77
269,908	-19,03
270,281	-18,53
270,654	-18,35
271,027	-18,64
271,4	-19,07
271,773	-19,1
272,146	-18,48
272,519	-18,07
272,891	-18,16
273,264	-18,55
273,637	-18,81
274,01	-18,66
274,382	-18,81
274,755	-19,01
275,127	-19,22
275,5	-19,51
275,872	-19,59
276,245	-19,94
276,617	-20,53
276,99	-21,1
277,362	-21,91
277,734	-22,34
278,107	-22,34
278,479	-22,01
278,851	-21,75
279,223	-21,43
279,596	-21,21
279,968	-21,3
280,34	-21,07
280,712	-20,33
281,084	-19,15
281,456	-18,25
281,828	-17,58
282,2	-16,62
282,572	-15,75
282,944	-15,21
283,315	-14,69
283,687	-14,21
284,059	-13,88
284,431	-13,47
284,802	-12,9
285,174	-12,41
285,546	-12,02
285,917	-11,52
286,289	-11,17
286,66	-10,87
287,032	-10,62
287,403	-10,38
287,775	-10,24
288,146	-10,36
288,518	-10,63
288,889	-10,63
289,26	-10,63
289,632	-10,9
290,003	-11,26
290,374	-11,52
290,745	-11,56
291,116	-11,61
291,487	-11,82
291,858	-11,89
292,229	-12,08
292,6	-12,23
292,971	-11,93
293,342	-11,62
293,713	-11,25
294,084	-10,83
294,455	-10,31
294,826	-10,12
295,196	-10,11
295,567	-10,32
295,938	-10,31
296,308	-10,12
296,679	-9,95
297,05	-9,63
297,42	-9,16
297,791	-8,64
298,161	-8,41
298,532	-8,1
298,902	-7,88
299,272	-7,69
299,643	-7,5
300,013	-7,08
300,383	-6,7
300,754	-6,7
301,124	-6,71
301,494	-6,94
301,864	-7,09
302,234	-7,25
302,604	-7,21
302,974	-7,17
303,344	-7
303,714	-6,88
304,084	-6,63
304,454	-6,69
304,824	-6,86
305,194	-6,99
305,563	-7,23
305,933	-7,19
306,303	-7,09
306,673	-6,88
307,042	-6,49
307,412	-6,15
307,781	-5,87
308,151	-5,68
308,521	-5,59
308,89	-5,58
309,259	-5,69
309,629	-5,84
309,998	-5,91
310,368	-5,88
310,737	-5,9
311,106	-5,86
311,475	-5,8
311,845	-5,94
312,214	-5,93
312,583	-5,87
312,952	-5,89
313,321	-5,79
313,69	-5,45
314,059	-5,35
314,428	-5,41
314,797	-5,54
315,166	-5,8
315,535	-6,19
315,904	-6,66
316,272	-6,94
316,641	-6,95
317,01	-6,82
317,379	-6,69
317,747	-6,6
318,116	-6,44
318,484	-6,18
318,853	-6,04
319,221	-5,95
319,59	-5,92
319,958	-5,84
320,327	-5,83
320,695	-5,77
321,063	-5,68
321,432	-5,79
321,8	-5,79
322,168	-5,83
322,536	-5,94
322,905	-5,74
323,273	-5,43
323,641	-5,1
324,009	-4,75
324,377	-4,6
324,745	-4,57
325,113	-4,37
325,481	-4,14
325,849	-4,03
326,216	-3,97
326,584	-3,74
326,952	-3,55
327,32	-3,31
327,687	-3,13
328,055	-2,89
328,423	-2,69
328,79	-2,69
329,158	-2,76
329,525	-2,83
329,893	-2,69
330,26	-2,46
330,628	-2,35
330,995	-2,26
331,362	-2,19
331,73	-2,19
332,097	-2,14
332,464	-1,99
332,831	-1,89
333,199	-1,89
333,566	-1,86
333,933	-1,8
334,3	-1,8
334,667	-1,76
335,034	-1,76
335,401	-1,77
335,768	-1,81
336,135	-1,83
336,502	-1,72
336,868	-1,53
337,235	-1,37
337,602	-1,31
337,969	-1,28
338,335	-1,24
338,702	-1,19
339,069	-1,15
339,435	-1,12
339,802	-1,02
340,168	-0,91
340,535	-0,9
340,901	-0,97
341,267	-1,01
341,634	-0,91
342	-0,87
342,366	-0,83
342,733	-0,81
343,099	-0,74
343,465	-0,75
343,831	-0,74
344,197	-0,69
344,563	-0,71
344,929	-0,7
345,295	-0,61
345,661	-0,48
346,027	-0,47
346,393	-0,49
346,759	-0,49
347,125	-0,42
347,491	-0,37
347,856	-0,32
348,222	-0,3
348,588	-0,1
348,953	0,08
349,319	0,08
349,684	0,15
350,05	0,16
350,415	0,2
350,781	0,18
351,146	0,29
351,512	0,42
351,877	0,47
352,242	0,52
352,608	0,6
352,973	0,65
353,338	0,69
353,703	0,83
354,068	0,93
354,433	1,05
354,798	1,11
355,164	1,14
355,528	1,17
355,893	1,23
356,258	1,26
356,623	1,31
356,988	1,43
357,353	1,49
357,718	1,6
358,082	1,69
358,447	1,75
358,812	1,83
359,176	1,85
359,541	1,91
359,905	1,97
360,27	2
360,634	2
360,999	2,05
361,363	2,08
361,728	2,13
362,092	2,13
362,456	2,12
362,821	2,17
363,185	2,22
363,549	2,28
363,913	2,31
364,277	2,28
364,641	2,2
365,005	2,19
365,369	2,2
365,733	2,25
366,097	2,35
366,461	2,44
366,825	2,52
367,189	2,54
367,553	2,59
367,916	2,7
368,28	2,83
368,644	2,91
369,007	2,99
369,371	3,12
369,734	3,24
370,098	3,35
370,461	3,39
370,825	3,42
371,188	3,48
371,552	3,54
371,915	3,65
372,278	3,83
372,642	3,93
373,005	4,01
373,368	4,09
373,731	4,13
374,094	4,14
374,457	4,16
374,82	4,25
375,183	4,3
375,546	4,32
375,909	4,32
376,272	4,39
376,635	4,47
376,998	4,5
377,361	4,57
377,723	4,64
378,086	4,72
378,449	4,82
378,811	4,84
379,174	4,91
379,537	4,94
379,899	4,94
380,262	4,96
380,624	5
380,987	5,05
381,349	5,11
381,711	5,17
382,074	5,25
382,436	5,34
382,798	5,45
383,16	5,51
383,522	5,53
383,884	5,53
384,247	5,53
384,609	5,55
384,971	5,56
385,333	5,57
385,695	5,58
386,056	5,57
386,418	5,58
386,78	5,55
387,142	5,55
387,504	5,55
387,865	5,58
388,227	5,58
388,589	5,61
388,95	5,65
389,312	5,65
389,673	5,67
390,035	5,68
390,396	5,64
390,758	5,64
391,119	5,68
391,48	5,72
391,842	5,72
392,203	5,72
392,564	5,71
392,925	5,74
393,286	5,78
393,648	5,81
394,009	5,85
394,37	5,87
394,731	5,91
395,092	5,94
395,452	5,94
395,813	5,97
396,174	5,98
396,535	5,99
396,896	5,99
397,257	5,98
397,617	6,01
397,978	6,06
398,338	6,09
398,699	6,12
399,06	6,15
399,42	6,15
399,781	6,16
400,141	6,18
400,501	6,17
400,862	6,16
401,222	6,17
401,582	6,16
401,943	6,2
402,303	6,2
402,663	6,22
403,023	6,23
403,383	6,24
403,743	6,22
404,103	6,22
404,463	6,26
404,823	6,31
405,183	6,3
405,543	6,28
405,903	6,29
406,262	6,28
406,622	6,25
406,982	6,28
407,342	6,31
407,701	6,3
408,061	6,31
408,42	6,32
408,78	6,32
409,139	6,33
409,499	6,32
409,858	6,34
410,217	6,36
410,577	6,37
410,936	6,37
411,295	6,36
411,655	6,34
412,014	6,3
412,373	6,28
412,732	6,24
413,091	6,23
413,45	6,19
413,809	6,14
414,168	6,09
414,527	6,03
414,886	5,96
415,245	5,93
415,603	5,88
415,962	5,84
416,321	5,78
416,679	5,76
417,038	5,7
417,397	5,66
417,755	5,6
418,114	5,57
418,472	5,54
418,831	5,55
419,189	5,55
419,547	5,52
419,906	5,49
420,264	5,47
420,622	5,43
420,981	5,43
421,339	5,43
421,697	5,43
422,055	5,44
422,413	5,45
422,771	5,46
423,129	5,48
423,487	5,5
423,845	5,52
424,203	5,54
424,56	5,58
424,918	5,6
425,276	5,64
425,634	5,67
425,991	5,7
426,349	5,72
426,707	5,75
427,064	5,78
427,422	5,82
427,779	5,86
428,137	5,92
428,494	5,96
428,851	5,98
429,209	6
429,566	5,99
429,923	5,98
430,28	5,98
430,637	5,99
430,995	5,98
431,352	5,98
431,709	5,97
432,066	5,98
432,423	5,98
432,78	5,96
433,137	5,95
433,493	5,93
433,85	5,94
434,207	5,91
434,564	5,9
434,92	5,89
435,277	5,88
435,634	5,85
435,99	5,83
436,347	5,83
436,703	5,83
437,06	5,82
437,416	5,84
437,773	5,83
438,129	5,82
438,485	5,83
438,841	5,82
439,198	5,81
439,554	5,79
439,91	5,8
440,266	5,81
440,622	5,82
440,978	5,81
441,334	5,77
441,69	5,77
442,046	5,76
442,402	5,76
442,758	5,75
443,113	5,75
443,469	5,75
443,825	5,75
444,181	5,75
444,536	5,76
444,892	5,76
445,247	5,78
445,603	5,79
445,958	5,8
446,314	5,8
446,669	5,82
447,025	5,84
447,38	5,85
447,735	5,85
448,09	5,86
448,446	5,88
448,801	5,91
449,156	5,92
449,511	5,95
449,866	5,99
450,221	6,03
450,576	6,06
450,931	6,11
451,286	6,16
451,641	6,19
451,995	6,23
452,35	6,27
452,705	6,29
453,06	6,29
453,414	6,3
453,769	6,31
454,123	6,31
454,478	6,29
454,832	6,29
455,187	6,26
455,541	6,23
455,896	6,2
456,25	6,18
456,604	6,16
456,958	6,15
457,313	6,13
457,667	6,11
458,021	6,11
458,375	6,11
458,729	6,11
459,083	6,11
459,437	6,11
459,791	6,1
460,145	6,09
460,499	6,09
460,852	6,08
461,206	6,09
461,56	6,09
461,914	6,11
462,267	6,11
462,621	6,13
462,974	6,14
463,328	6,15
463,681	6,16
464,035	6,19
464,388	6,2
464,742	6,23
465,095	6,24
465,448	6,26
465,801	6,24
466,155	6,23
466,508	6,22
466,861	6,21
467,214	6,21
467,567	6,22
467,92	6,23
468,273	6,23
468,626	6,22
468,979	6,2
469,332	6,19
469,684	6,18
470,037	6,19
470,39	6,22
470,743	6,22
471,095	6,24
471,448	6,25
471,8	6,27
472,153	6,27
472,505	6,28
472,858	6,27
473,21	6,28
473,562	6,29
473,915	6,29
474,267	6,29
474,619	6,28
474,971	6,28
475,324	6,28
475,676	6,29
476,028	6,29
476,38	6,31
476,732	6,31
477,084	6,32
477,436	6,3
477,787	6,28
478,139	6,27
478,491	6,27
478,843	6,24
479,195	6,2
479,546	6,16
479,898	6,1
480,249	6,05
480,601	6
480,952	5,96
481,304	5,95
481,655	5,95
482,007	5,95
482,358	5,94
482,709	5,93
483,061	5,91
483,412	5,91
483,763	5,9
484,114	5,89
484,465	5,89
484,816	5,89
485,167	5,88
485,518	5,89
485,869	5,89
486,22	5,9
486,571	5,91
486,922	5,92
487,272	5,94
487,623	5,97
487,974	6
488,324	6,01
488,675	6,02
489,025	6,03
489,376	6,03
489,726	6,04
490,077	6,05
490,427	6,07
490,778	6,08
491,128	6,1
491,478	6,12
491,828	6,14
492,179	6,16
492,529	6,18
492,879	6,18
493,229	6,19
493,579	6,19
493,929	6,2
494,279	6,21
494,629	6,23
494,979	6,24
495,328	6,26
495,678	6,3
496,028	6,33
496,378	6,34
496,727	6,36
497,077	6,36
497,426	6,37
497,776	6,36
498,125	6,37
498,475	6,38
498,824	6,39
499,174	6,4
499,523	6,41
499,872	6,42
500,221	6,43
500,571	6,44
500,92	6,46
501,269	6,48
501,618	6,46
501,967	6,47
502,316	6,47
502,665	6,47
503,014	6,46
503,363	6,46
503,711	6,45
504,06	6,45
504,409	6,45
504,758	6,45
505,106	6,45
505,455	6,44
505,803	6,43
506,152	6,42
506,5	6,41
506,849	6,42
507,197	6,41
507,546	6,41
507,894	6,41
508,242	6,42
508,59	6,4
508,939	6,4
509,287	6,39
509,635	6,4
509,983	6,42
510,331	6,43
510,679	6,45
511,027	6,47
511,375	6,49
511,723	6,49
512,07	6,5
512,418	6,53
512,766	6,55
513,114	6,57
513,461	6,59
513,809	6,6
514,156	6,6
514,504	6,6
514,851	6,59
515,199	6,57
515,546	6,56
515,893	6,57
516,241	6,58
516,588	6,61
516,935	6,61
517,282	6,61
517,63	6,62
517,977	6,62
518,324	6,62
518,671	6,61
519,018	6,62
519,365	6,62
519,711	6,62
520,058	6,62
520,405	6,61
520,752	6,61
521,099	6,6
521,445	6,6
521,792	6,6
522,138	6,62
522,485	6,62
522,832	6,63
523,178	6,62
523,524	6,63
523,871	6,62
524,217	6,62
524,563	6,61
524,91	6,57
525,256	6,51
525,602	6,49
525,948	6,49
526,294	6,48
526,64	6,47
526,986	6,46
527,332	6,45
527,678	6,46
528,024	6,47
528,37	6,48
528,716	6,48
529,061	6,49
529,407	6,48
529,753	6,48
530,098	6,47
530,444	6,46
530,789	6,46
531,135	6,46
531,48	6,45
531,826	6,45
532,171	6,47
532,516	6,5
532,862	6,52
533,207	6,52
533,552	6,54
533,897	6,55
534,242	6,55
534,587	6,56
534,932	6,57
535,277	6,58
535,622	6,58
535,967	6,59
536,312	6,6
536,657	6,63
537,001	6,64
537,346	6,65
537,691	6,65
538,035	6,64
538,38	6,62
538,724	6,62
539,069	6,63
539,413	6,63
539,758	6,63
540,102	6,64
540,446	6,64
540,791	6,64
541,135	6,64
541,479	6,66
541,823	6,66
542,167	6,65
542,512	6,64
542,856	6,64
543,2	6,64
543,543	6,63
543,887	6,64
544,231	6,64
544,575	6,65
544,919	6,68
545,262	6,7
545,606	6,73
545,95	6,75
546,293	6,76
546,637	6,76
546,98	6,77
547,324	6,77
547,667	6,81
548,011	6,81
548,354	6,82
548,697	6,8
549,04	6,8
549,384	6,81
549,727	6,79
550,07	6,79
550,413	6,78
550,756	6,77
551,099	6,75
551,442	6,77
551,785	6,77
552,128	6,76
552,47	6,76
552,813	6,76
553,156	6,75
553,499	6,74
553,841	6,75
554,184	6,74
554,526	6,72
554,869	6,68
555,211	6,66
555,554	6,64
555,896	6,64
556,238	6,6
556,581	6,57
556,923	6,57
557,265	6,55
557,607	6,53
557,949	6,53
558,291	6,52
558,633	6,48
558,975	6,48
559,317	6,46
559,659	6,43
560,001	6,41
560,343	6,38
560,685	6,37
561,026	6,35
561,368	6,35
561,71	6,33
562,051	6,32
562,393	6,32
562,734	6,29
563,076	6,27
563,417	6,29
563,759	6,3
564,1	6,28
564,441	6,29
564,782	6,28
565,124	6,26
565,465	6,25
565,806	6,26
566,147	6,22
566,488	6,21
566,829	6,21
567,17	6,19
567,511	6,18
567,851	6,15
568,192	6,12
568,533	6,1
568,874	6,1
569,214	6,1
569,555	6,07
569,895	6,08
570,236	6,08
570,576	6,07
570,917	6,05
571,257	6,03
571,598	5,99
571,938	5,98
572,278	5,98
572,618	5,98
572,959	5,99
573,299	5,99
573,639	5,98
573,979	5,99
574,319	6
574,659	6
574,999	5,98
575,339	5,96
575,678	5,96
576,018	5,96
576,358	5,94
576,698	5,94
577,037	5,92
577,377	5,91
577,716	5,88
578,056	5,85
578,395	5,85
578,735	5,85
579,074	5,86
579,413	5,84
579,753	5,8
580,092	5,74
580,431	5,73
580,77	5,71
581,109	5,66
581,448	5,62
581,787	5,59
582,126	5,58
582,465	5,6
582,804	5,58
583,143	5,57
583,482	5,56
583,82	5,55
584,159	5,53
584,498	5,53
584,836	5,54
585,175	5,55
585,514	5,57
585,852	5,55
586,19	5,52
586,529	5,52
586,867	5,53
587,205	5,54
587,544	5,54
587,882	5,56
588,22	5,57
588,558	5,58
588,896	5,61
589,234	5,63
589,572	5,63
589,91	5,63
590,248	5,61
590,586	5,58
590,924	5,59
591,262	5,61
591,599	5,61
591,937	5,63
592,275	5,64
592,612	5,65
592,95	5,68
593,287	5,72
593,625	5,74
593,962	5,75
594,299	5,77
594,637	5,8
594,974	5,81
595,311	5,84
595,648	5,87
595,985	5,89
596,322	5,89
596,659	5,9
596,996	5,92
597,333	5,93
597,67	5,93
598,007	5,92
598,344	5,92
598,681	5,92
599,017	5,93
599,354	5,93
599,691	5,92
600,027	5,91
600,364	5,92
600,7	5,94
601,037	5,96
601,373	5,98
601,71	5,97
602,046	5,98
602,382	5,97
602,718	5,94
603,054	5,93
603,391	5,93
603,727	5,94
604,063	5,93
604,399	5,95
604,735	5,99
605,071	6,01
605,406	6,02
605,742	6,02
606,078	6,01
606,414	6,02
606,749	6,04
607,085	6,06
607,421	6,04
607,756	6,04
608,092	6,04
608,427	6,05
608,762	6,05
609,098	6,03
609,433	6,03
609,768	6,03
610,104	6,03
610,439	6,02
610,774	6
611,109	5,99
611,444	5,97
611,779	5,93
612,114	5,93
612,449	5,93
612,784	5,93
613,118	5,91
613,453	5,87
613,788	5,84
614,123	5,79
614,457	5,74
614,792	5,7
615,126	5,66
615,461	5,61
615,795	5,59
616,13	5,55
616,464	5,53
616,798	5,51
617,132	5,5
617,467	5,51
617,801	5,52
618,135	5,52
618,469	5,51
618,803	5,53
619,137	5,51
619,471	5,52
619,805	5,5
620,139	5,52
620,472	5,58
620,806	5,6
621,14	5,62
621,473	5,63
621,807	5,62
622,141	5,62
622,474	5,63
622,808	5,61
623,141	5,62
623,474	5,63
623,808	5,67
624,141	5,7
624,474	5,74
624,807	5,75
625,141	5,76
625,474	5,79
625,807	5,8
626,14	5,82
626,473	5,83
626,806	5,85
627,138	5,85
627,471	5,82
627,804	5,84
628,137	5,85
628,469	5,87
628,802	5,87
629,135	5,85
629,467	5,84
629,8	5,86
630,132	5,88
630,465	5,9
630,797	5,86
631,129	5,83
631,461	5,81
631,794	5,79
632,126	5,78
632,458	5,77
632,79	5,77
633,122	5,77
633,454	5,77
633,786	5,77
634,118	5,74
634,45	5,74
634,781	5,72
635,113	5,7
635,445	5,69
635,777	5,72
636,108	5,76
636,44	5,78
636,771	5,78
637,103	5,76
637,434	5,75
637,765	5,75
638,097	5,77
638,428	5,78
638,759	5,79
639,09	5,8
639,422	5,8
639,753	5,78
640,084	5,75
640,415	5,73
640,746	5,72
641,077	5,76
641,407	5,77
641,738	5,79
642,069	5,8
642,4	5,84
642,73	5,84
643,061	5,81
643,392	5,79
643,722	5,8
644,053	5,82
644,383	5,83
644,713	5,86
645,044	5,87
645,374	5,87
645,704	5,87
646,034	5,88
646,365	5,87
646,695	5,86
647,025	5,89
647,355	5,93
647,685	5,97
648,015	5,98
648,344	5,98
648,674	5,99
649,004	5,98
649,334	5,95
649,663	5,96
649,993	6
650,323	6,03
650,652	6,01
650,982	5,99
651,311	5,98
651,64	5,95
651,97	5,94
652,299	5,93
652,628	5,96
652,958	5,97
653,287	5,98
653,616	6,03
653,945	6,02
654,274	6
654,603	5,99
654,932	5,97
655,261	5,95
655,589	5,96
655,918	6
656,247	6,07
656,576	6,09
656,904	6,09
657,233	6,1
657,561	6,14
657,89	6,18
658,218	6,23
658,547	6,3
658,875	6,34
659,203	6,35
659,532	6,38
659,86	6,39
660,188	6,41
660,516	6,43
660,844	6,44
661,172	6,47
661,5	6,5
661,828	6,51
662,156	6,54
662,484	6,52
662,811	6,51
663,139	6,48
663,467	6,48
663,794	6,5
664,122	6,54
664,45	6,54
664,777	6,52
665,104	6,49
