Data from zc74042_1_Reflection_00005.txt Node
Date: Thu Mar 12 14:48:46 ART 2020
User: Ana
Spectrometer: USB2E3644
Trigger mode: 4
Integration Time (sec): 5,000000E-2
Scans to average: 10
Electric dark correction enabled: true
Nonlinearity correction enabled: false
Boxcar width: 10
XAxis mode: Wavelengths
Number of Pixels in Spectrum: 2048
>>>>>Begin Spectral Data<<<<<
178,315	107
178,696	103,2
179,076	100,19
179,457	95,01
179,838	71,72
180,218	60,51
180,599	82,05
180,979	-10,71
181,36	45,74
181,74	87,15
182,121	95,14
182,501	103,22
182,881	92,64
183,262	89,18
183,642	93,33
184,022	99,02
184,402	105,11
184,783	105,56
185,163	108,39
185,543	109,9
185,923	110,37
186,303	111,27
186,683	112,54
187,063	113,15
187,443	112,17
187,823	108,86
188,203	109,45
188,583	112,15
188,963	116,23
189,343	120,57
189,723	119,28
190,102	120,09
190,482	124,28
190,862	128,71
191,242	132,08
191,621	131,33
192,001	129,68
192,38	126,9
192,76	128,18
193,14	130,03
193,519	130,19
193,898	130,07
194,278	129,77
194,657	128,3
195,037	127,59
195,416	128,79
195,795	130,29
196,175	130,23
196,554	129,86
196,933	127,39
197,312	125,8
197,692	124,93
198,071	123,15
198,45	119,94
198,829	118,7
199,208	117,35
199,587	116,48
199,966	115,13
200,345	114,45
200,724	113,19
201,103	111,84
201,482	110,95
201,86	110,85
202,239	110,95
202,618	111,16
202,997	111,72
203,375	111,41
203,754	111,84
204,133	112,58
204,511	112,04
204,89	111,43
205,269	111,15
205,647	112,59
206,026	113,79
206,404	114,76
206,782	114,71
207,161	114,22
207,539	114,99
207,918	116,7
208,296	116,95
208,674	117,02
209,052	116,63
209,431	116,67
209,809	115,39
210,187	113,24
210,565	111,99
210,943	111,19
211,321	110,75
211,699	109,56
212,077	108,22
212,455	107,46
212,833	106,86
213,211	105,69
213,589	103,46
213,967	101,26
214,345	101,01
214,722	100,78
215,1	102,21
215,478	101,74
215,855	100,56
216,233	100,2
216,611	100,21
216,988	100,86
217,366	100,61
217,743	101,53
218,121	103,84
218,498	105,28
218,876	105,05
219,253	105,16
219,631	106,72
220,008	108,87
220,385	109,93
220,762	110,15
221,14	112,67
221,517	114,51
221,894	115,76
222,271	116,22
222,648	117,53
223,025	118,2
223,402	119,37
223,78	120,97
224,157	122,38
224,533	122,43
224,91	122,5
225,287	124,16
225,664	126,93
226,041	131,4
226,418	135,26
226,795	138,68
227,171	142,4
227,548	144,82
227,925	145,46
228,301	148,58
228,678	151,39
229,055	151,18
229,431	153,22
229,808	157,81
230,184	160,2
230,561	162,51
230,937	165,15
231,313	168,25
231,69	171,58
232,066	172,63
232,442	175,35
232,819	180,09
233,195	180,56
233,571	182,19
233,947	181,36
234,323	180,78
234,699	183,43
235,075	183,97
235,451	183,59
235,827	186,37
236,203	188,78
236,579	194,5
236,955	205,25
237,331	218,23
237,707	233,49
238,083	262,54
238,459	312,9
238,834	401,05
239,21	571,88
239,586	906,85
239,961	1833,94
240,337	5542,59
240,713	-11040,74
241,088	-3105,21
241,464	-2278,79
241,839	-1733,33
242,215	-1047,14
242,59	-612,09
242,965	-339,25
243,341	-204,91
243,716	-139,43
244,091	-111,09
244,467	-96,47
244,842	-86,69
245,217	-79,37
245,592	-75,25
245,967	-74,94
246,343	-74,6
246,718	-74,43
247,093	-76,85
247,468	-78,5
247,843	-77,92
248,218	-75,81
248,593	-70,84
248,967	-65,22
249,342	-61,66
249,717	-59,13
250,092	-57,92
250,467	-59,01
250,841	-63,14
251,216	-70,92
251,591	-84,42
251,965	-96,62
252,34	-104,97
252,714	-115,47
253,089	-122,98
253,463	-128,89
253,838	-127,37
254,212	-122,19
254,587	-113,49
254,961	-98,15
255,335	-83,51
255,71	-69,56
256,084	-55,03
256,458	-44,78
256,832	-38,16
257,206	-34,44
257,581	-32,56
257,955	-31,17
258,329	-29,81
258,703	-28,49
259,077	-27,63
259,451	-26,47
259,825	-25,79
260,199	-25,86
260,572	-25,63
260,946	-25,72
261,32	-25,73
261,694	-25,26
262,068	-24,93
262,441	-24,54
262,815	-24,58
263,189	-24,58
263,562	-25,25
263,936	-27,39
264,309	-30,3
264,683	-33,25
265,056	-34,63
265,43	-34,94
265,803	-34,45
266,176	-33,81
266,55	-33,7
266,923	-33,28
267,296	-32,54
267,67	-31,43
268,043	-30,16
268,416	-27,99
268,789	-26,11
269,162	-24,62
269,535	-23,52
269,908	-22,61
270,281	-22,2
270,654	-22,33
271,027	-22,93
271,4	-22,94
271,773	-22,58
272,146	-22,17
272,519	-22,14
272,891	-22,51
273,264	-23
273,637	-23,45
274,01	-23,55
274,382	-23,94
274,755	-24,21
275,127	-24,27
275,5	-24,36
275,872	-24,5
276,245	-25,12
276,617	-25,54
276,99	-25,49
277,362	-25,69
277,734	-25,73
278,107	-25,35
278,479	-24,8
278,851	-24,07
279,223	-23,44
279,596	-22,84
279,968	-22,89
280,34	-22,85
280,712	-22,08
281,084	-21,03
281,456	-19,95
281,828	-18,88
282,2	-17,37
282,572	-16,23
282,944	-15,54
283,315	-15,2
283,687	-14,85
284,059	-14,71
284,431	-14,57
284,802	-14,34
285,174	-14,08
285,546	-14,01
285,917	-13,79
286,289	-13,55
286,66	-13,38
287,032	-13,27
287,403	-13,28
287,775	-13,2
288,146	-13,15
288,518	-13,31
288,889	-13,31
289,26	-13,44
289,632	-13,72
290,003	-14,14
290,374	-14,34
290,745	-14,43
291,116	-14,31
291,487	-14,18
291,858	-13,87
292,229	-13,52
292,6	-13,25
292,971	-12,74
293,342	-12,08
293,713	-11,48
294,084	-10,87
294,455	-10,2
294,826	-9,74
295,196	-9,54
295,567	-9,55
295,938	-9,28
296,308	-8,97
296,679	-8,9
297,05	-8,87
297,42	-8,7
297,791	-8,4
298,161	-8,26
298,532	-8,02
298,902	-7,9
299,272	-7,84
299,643	-7,76
300,013	-7,56
300,383	-7,45
300,754	-7,56
301,124	-7,73
301,494	-8,04
301,864	-8,46
302,234	-8,85
302,604	-9,06
302,974	-9,1
303,344	-8,95
303,714	-8,9
304,084	-8,8
304,454	-8,61
304,824	-8,38
305,194	-8,4
305,563	-8,51
305,933	-8,43
306,303	-8,25
306,673	-7,94
307,042	-7,43
307,412	-6,97
307,781	-6,6
308,151	-6,32
308,521	-6,21
308,89	-6,03
309,259	-6,02
309,629	-5,97
309,998	-5,9
310,368	-5,84
310,737	-5,78
311,106	-5,7
311,475	-5,64
311,845	-5,64
312,214	-5,56
312,583	-5,49
312,952	-5,43
313,321	-5,3
313,69	-5,11
314,059	-5,05
314,428	-5,13
314,797	-5,28
315,166	-5,35
315,535	-5,59
315,904	-5,88
316,272	-5,98
316,641	-6,21
317,01	-6,18
317,379	-6,09
317,747	-6,01
318,116	-5,86
318,484	-5,71
318,853	-5,71
319,221	-5,64
319,59	-5,59
319,958	-5,6
320,327	-5,62
320,695	-5,52
321,063	-5,32
321,432	-5,14
321,8	-4,98
322,168	-4,8
322,536	-4,85
322,905	-4,72
323,273	-4,43
323,641	-4,13
324,009	-3,84
324,377	-3,64
324,745	-3,44
325,113	-3,11
325,481	-2,81
325,849	-2,62
326,216	-2,47
326,584	-2,15
326,952	-1,98
327,32	-1,82
327,687	-1,68
328,055	-1,47
328,423	-1,3
328,79	-1,31
329,158	-1,47
329,525	-1,51
329,893	-1,44
330,26	-1,25
330,628	-1,25
330,995	-1,25
331,362	-1,32
331,73	-1,34
332,097	-1,18
332,464	-1,08
332,831	-1,11
333,199	-1,12
333,566	-1,05
333,933	-0,88
334,3	-0,79
334,667	-0,7
335,034	-0,52
335,401	-0,37
335,768	-0,23
336,135	-0,11
336,502	0,04
336,868	0,25
337,235	0,36
337,602	0,44
337,969	0,58
338,335	0,75
338,702	0,95
339,069	1,13
339,435	1,17
339,802	1,23
340,168	1,28
340,535	1,36
340,901	1,32
341,267	1,27
341,634	1,31
342	1,35
342,366	1,44
342,733	1,41
343,099	1,48
343,465	1,47
343,831	1,46
344,197	1,5
344,563	1,56
344,929	1,57
345,295	1,61
345,661	1,61
346,027	1,57
346,393	1,46
346,759	1,48
347,125	1,58
347,491	1,63
347,856	1,67
348,222	1,62
348,588	1,73
348,953	1,84
349,319	1,75
349,684	1,7
350,05	1,67
350,415	1,73
350,781	1,76
351,146	1,83
351,512	1,94
351,877	1,97
352,242	1,94
352,608	2,02
352,973	2,12
353,338	2,27
353,703	2,38
354,068	2,44
354,433	2,47
354,798	2,45
355,164	2,49
355,528	2,56
355,893	2,67
356,258	2,73
356,623	2,82
356,988	2,96
357,353	3,1
357,718	3,19
358,082	3,22
358,447	3,23
358,812	3,31
359,176	3,39
359,541	3,51
359,905	3,62
360,27	3,66
360,634	3,68
360,999	3,71
361,363	3,8
361,728	3,88
362,092	3,99
362,456	4,11
362,821	4,2
363,185	4,27
363,549	4,35
363,913	4,36
364,277	4,38
364,641	4,35
365,005	4,36
365,369	4,37
365,733	4,45
366,097	4,58
366,461	4,63
366,825	4,67
367,189	4,65
367,553	4,71
367,916	4,85
368,28	4,96
368,644	5,01
369,007	5,06
369,371	5,14
369,734	5,22
370,098	5,24
370,461	5,3
370,825	5,39
371,188	5,42
371,552	5,52
371,915	5,63
372,278	5,81
372,642	5,93
373,005	6,09
373,368	6,2
373,731	6,29
374,094	6,38
374,457	6,47
374,82	6,61
375,183	6,69
375,546	6,74
375,909	6,81
376,272	6,91
376,635	6,98
376,998	7,04
377,361	7,1
377,723	7,18
378,086	7,2
378,449	7,21
378,811	7,28
379,174	7,33
379,537	7,38
379,899	7,39
380,262	7,41
380,624	7,41
380,987	7,44
381,349	7,51
381,711	7,54
382,074	7,57
382,436	7,6
382,798	7,69
383,16	7,73
383,522	7,78
383,884	7,84
384,247	7,86
384,609	7,88
384,971	7,89
385,333	7,93
385,695	7,97
386,056	8,03
386,418	8,07
386,78	8,09
387,142	8,09
387,504	8,12
387,865	8,18
388,227	8,22
388,589	8,24
388,95	8,23
389,312	8,26
389,673	8,31
390,035	8,33
390,396	8,34
390,758	8,35
391,119	8,32
391,48	8,28
391,842	8,32
392,203	8,36
392,564	8,4
392,925	8,45
393,286	8,47
393,648	8,5
394,009	8,54
394,37	8,55
394,731	8,57
395,092	8,59
395,452	8,57
395,813	8,56
396,174	8,55
396,535	8,55
396,896	8,53
397,257	8,51
397,617	8,55
397,978	8,56
398,338	8,56
398,699	8,6
399,06	8,65
399,42	8,66
399,781	8,67
400,141	8,66
400,501	8,65
400,862	8,69
401,222	8,69
401,582	8,67
401,943	8,69
402,303	8,71
402,663	8,73
403,023	8,77
403,383	8,8
403,743	8,82
404,103	8,84
404,463	8,87
404,823	8,92
405,183	8,92
405,543	8,93
405,903	8,94
406,262	8,96
406,622	8,93
406,982	8,95
407,342	8,95
407,701	8,98
408,061	9
408,42	8,99
408,78	8,99
409,139	9,01
409,499	9,01
409,858	9
410,217	9,02
410,577	9
410,936	9
411,295	9
411,655	8,99
412,014	8,95
412,373	8,93
412,732	8,89
413,091	8,86
413,45	8,84
413,809	8,8
414,168	8,76
414,527	8,72
414,886	8,67
415,245	8,64
415,603	8,59
415,962	8,58
416,321	8,52
416,679	8,49
417,038	8,45
417,397	8,4
417,755	8,35
418,114	8,32
418,472	8,29
418,831	8,28
419,189	8,28
419,547	8,28
419,906	8,25
420,264	8,22
420,622	8,21
420,981	8,19
421,339	8,19
421,697	8,19
422,055	8,19
422,413	8,21
422,771	8,21
423,129	8,23
423,487	8,24
423,845	8,27
424,203	8,29
424,56	8,32
424,918	8,36
425,276	8,41
425,634	8,44
425,991	8,47
426,349	8,5
426,707	8,51
427,064	8,56
427,422	8,59
427,779	8,65
428,137	8,69
428,494	8,76
428,851	8,8
429,209	8,84
429,566	8,85
429,923	8,86
430,28	8,86
430,637	8,86
430,995	8,83
431,352	8,8
431,709	8,79
432,066	8,8
432,423	8,8
432,78	8,77
433,137	8,78
433,493	8,78
433,85	8,81
434,207	8,78
434,564	8,74
434,92	8,75
435,277	8,74
435,634	8,75
435,99	8,71
436,347	8,69
436,703	8,69
437,06	8,69
437,416	8,68
437,773	8,68
438,129	8,66
438,485	8,68
438,841	8,69
439,198	8,69
439,554	8,69
439,91	8,7
440,266	8,72
440,622	8,71
440,978	8,7
441,334	8,65
441,69	8,66
442,046	8,67
442,402	8,64
442,758	8,62
443,113	8,61
443,469	8,59
443,825	8,6
444,181	8,59
444,536	8,6
444,892	8,6
445,247	8,61
445,603	8,63
445,958	8,63
446,314	8,64
446,669	8,65
447,025	8,66
447,38	8,66
447,735	8,66
448,09	8,67
448,446	8,71
448,801	8,73
449,156	8,73
449,511	8,76
449,866	8,81
450,221	8,84
450,576	8,88
450,931	8,95
451,286	8,97
451,641	9
451,995	9,01
452,35	9,04
452,705	9,05
453,06	9,07
453,414	9,09
453,769	9,1
454,123	9,11
454,478	9,13
454,832	9,15
455,187	9,14
455,541	9,11
455,896	9,08
456,25	9,06
456,604	9,04
456,958	9,02
457,313	9
457,667	8,98
458,021	8,96
458,375	8,96
458,729	8,99
459,083	9,01
459,437	9,03
459,791	9,03
460,145	9,05
460,499	9,05
460,852	9,04
461,206	9,04
461,56	9,03
461,914	9,01
462,267	9
462,621	9,01
462,974	9,04
463,328	9,04
463,681	9,07
464,035	9,1
464,388	9,13
464,742	9,15
465,095	9,18
465,448	9,19
465,801	9,17
466,155	9,14
466,508	9,13
466,861	9,13
467,214	9,13
467,567	9,12
467,92	9,11
468,273	9,12
468,626	9,1
468,979	9,11
469,332	9,13
469,684	9,13
470,037	9,13
470,39	9,15
470,743	9,18
471,095	9,19
471,448	9,19
471,8	9,2
472,153	9,21
472,505	9,21
472,858	9,22
473,21	9,24
473,562	9,26
473,915	9,27
474,267	9,27
474,619	9,29
474,971	9,29
475,324	9,27
475,676	9,29
476,028	9,32
476,38	9,32
476,732	9,31
477,084	9,32
477,436	9,32
477,787	9,3
478,139	9,28
478,491	9,27
478,843	9,26
479,195	9,27
479,546	9,21
479,898	9,18
480,249	9,13
480,601	9,09
480,952	9,06
481,304	9,03
481,655	9,02
482,007	8,99
482,358	8,98
482,709	8,96
483,061	8,95
483,412	8,95
483,763	8,94
484,114	8,94
484,465	8,93
484,816	8,92
485,167	8,92
485,518	8,91
485,869	8,91
486,22	8,9
486,571	8,89
486,922	8,9
487,272	8,9
487,623	8,92
487,974	8,93
488,324	8,93
488,675	8,94
489,025	8,93
489,376	8,95
489,726	8,96
490,077	8,98
490,427	8,98
490,778	8,99
491,128	9
491,478	9,01
491,828	9,03
492,179	9,05
492,529	9,08
492,879	9,09
493,229	9,12
493,579	9,14
493,929	9,17
494,279	9,21
494,629	9,23
494,979	9,23
495,328	9,26
495,678	9,31
496,028	9,34
496,378	9,38
496,727	9,4
497,077	9,41
497,426	9,45
497,776	9,44
498,125	9,45
498,475	9,46
498,824	9,47
499,174	9,46
499,523	9,46
499,872	9,44
500,221	9,47
500,571	9,48
500,92	9,48
501,269	9,48
501,618	9,47
501,967	9,47
502,316	9,48
502,665	9,48
503,014	9,48
503,363	9,5
503,711	9,51
504,06	9,53
504,409	9,55
504,758	9,54
505,106	9,56
505,455	9,56
505,803	9,55
506,152	9,53
506,5	9,54
506,849	9,53
507,197	9,54
507,546	9,54
507,894	9,54
508,242	9,55
508,59	9,56
508,939	9,54
509,287	9,54
509,635	9,55
509,983	9,57
510,331	9,58
510,679	9,58
511,027	9,58
511,375	9,58
511,723	9,59
512,07	9,58
512,418	9,6
512,766	9,62
513,114	9,62
513,461	9,66
513,809	9,67
514,156	9,69
514,504	9,68
514,851	9,67
515,199	9,66
515,546	9,64
515,893	9,62
516,241	9,64
516,588	9,64
516,935	9,65
517,282	9,65
517,63	9,65
517,977	9,67
518,324	9,67
518,671	9,69
519,018	9,7
519,365	9,71
519,711	9,7
520,058	9,7
520,405	9,7
520,752	9,7
521,099	9,7
521,445	9,71
521,792	9,73
522,138	9,74
522,485	9,75
522,832	9,75
523,178	9,76
523,524	9,75
523,871	9,75
524,217	9,73
524,563	9,71
524,91	9,68
525,256	9,64
525,602	9,64
525,948	9,62
526,294	9,59
526,64	9,58
526,986	9,56
527,332	9,55
527,678	9,55
528,024	9,54
528,37	9,56
528,716	9,55
529,061	9,55
529,407	9,56
529,753	9,56
530,098	9,56
530,444	9,57
530,789	9,55
531,135	9,55
531,48	9,55
531,826	9,54
532,171	9,56
532,516	9,58
532,862	9,59
533,207	9,61
533,552	9,62
533,897	9,63
534,242	9,64
534,587	9,65
534,932	9,66
535,277	9,67
535,622	9,66
535,967	9,68
536,312	9,68
536,657	9,68
537,001	9,69
537,346	9,7
537,691	9,71
538,035	9,73
538,38	9,75
538,724	9,75
539,069	9,75
539,413	9,75
539,758	9,73
540,102	9,71
540,446	9,69
540,791	9,69
541,135	9,7
541,479	9,72
541,823	9,73
542,167	9,74
542,512	9,75
542,856	9,74
543,2	9,74
543,543	9,74
543,887	9,74
544,231	9,75
544,575	9,77
544,919	9,77
545,262	9,78
545,606	9,79
545,95	9,8
546,293	9,82
546,637	9,83
546,98	9,86
547,324	9,89
547,667	9,93
548,011	9,93
548,354	9,95
548,697	9,93
549,04	9,93
549,384	9,93
549,727	9,92
550,07	9,94
550,413	9,94
550,756	9,93
551,099	9,94
551,442	9,93
551,785	9,94
552,128	9,95
552,47	9,94
552,813	9,94
553,156	9,94
553,499	9,93
553,841	9,94
554,184	9,95
554,526	9,92
554,869	9,9
555,211	9,91
555,554	9,89
555,896	9,86
556,238	9,84
556,581	9,82
556,923	9,81
557,265	9,79
557,607	9,76
557,949	9,77
558,291	9,75
558,633	9,74
558,975	9,72
559,317	9,69
559,659	9,65
560,001	9,64
560,343	9,62
560,685	9,6
561,026	9,59
561,368	9,57
561,71	9,54
562,051	9,52
562,393	9,53
562,734	9,5
563,076	9,5
563,417	9,47
563,759	9,48
564,1	9,46
564,441	9,43
564,782	9,42
565,124	9,4
565,465	9,4
565,806	9,38
566,147	9,37
566,488	9,36
566,829	9,34
567,17	9,34
567,511	9,34
567,851	9,33
568,192	9,3
568,533	9,27
568,874	9,31
569,214	9,3
569,555	9,27
569,895	9,28
570,236	9,28
570,576	9,28
570,917	9,26
571,257	9,26
571,598	9,27
571,938	9,27
572,278	9,27
572,618	9,25
572,959	9,26
573,299	9,24
573,639	9,23
573,979	9,24
574,319	9,22
574,659	9,2
574,999	9,18
575,339	9,18
575,678	9,18
576,018	9,15
576,358	9,14
576,698	9,11
577,037	9,1
577,377	9,09
577,716	9,07
578,056	9,06
578,395	9,04
578,735	9,03
579,074	9,01
579,413	8,98
579,753	8,98
580,092	8,92
580,431	8,87
580,77	8,89
581,109	8,88
581,448	8,85
581,787	8,84
582,126	8,86
582,465	8,83
582,804	8,82
583,143	8,83
583,482	8,82
583,82	8,84
584,159	8,82
584,498	8,81
584,836	8,83
585,175	8,81
585,514	8,83
585,852	8,83
586,19	8,82
586,529	8,82
586,867	8,81
587,205	8,84
587,544	8,88
587,882	8,87
588,22	8,88
588,558	8,9
588,896	8,91
589,234	8,9
589,572	8,92
589,91	8,91
590,248	8,88
590,586	8,89
590,924	8,9
591,262	8,92
591,599	8,94
591,937	8,93
592,275	8,95
592,612	8,94
592,95	8,95
593,287	8,98
593,625	9
593,962	9,01
594,299	9,05
594,637	9,06
594,974	9,09
595,311	9,11
595,648	9,14
595,985	9,16
596,322	9,13
596,659	9,13
596,996	9,16
597,333	9,17
597,67	9,17
598,007	9,14
598,344	9,13
598,681	9,14
599,017	9,15
599,354	9,14
599,691	9,16
600,027	9,17
600,364	9,17
600,7	9,18
601,037	9,24
601,373	9,23
601,71	9,24
602,046	9,25
602,382	9,22
602,718	9,21
603,054	9,2
603,391	9,23
603,727	9,24
604,063	9,25
604,399	9,26
604,735	9,26
605,071	9,3
605,406	9,32
605,742	9,33
606,078	9,35
606,414	9,37
606,749	9,38
607,085	9,38
607,421	9,39
607,756	9,37
608,092	9,33
608,427	9,3
608,762	9,27
609,098	9,23
609,433	9,21
609,768	9,22
610,104	9,23
610,439	9,23
610,774	9,24
611,109	9,23
611,444	9,2
611,779	9,18
612,114	9,16
612,449	9,15
612,784	9,1
613,118	9,06
613,453	9,03
613,788	8,99
614,123	8,94
614,457	8,89
614,792	8,86
615,126	8,86
615,461	8,86
615,795	8,85
616,13	8,82
616,464	8,83
616,798	8,82
617,132	8,79
617,467	8,74
617,801	8,72
618,135	8,73
618,469	8,76
618,803	8,78
619,137	8,8
619,471	8,81
619,805	8,83
620,139	8,85
620,472	8,89
620,806	8,92
621,14	8,93
621,473	8,96
621,807	8,96
622,141	8,97
622,474	8,98
622,808	8,99
623,141	9,04
623,474	9,08
623,808	9,09
624,141	9,15
624,474	9,21
624,807	9,22
625,141	9,21
625,474	9,23
625,807	9,25
626,14	9,23
626,473	9,21
626,806	9,2
627,138	9,19
627,471	9,14
627,804	9,13
628,137	9,16
628,469	9,17
628,802	9,2
629,135	9,19
629,467	9,2
629,8	9,23
630,132	9,24
630,465	9,23
630,797	9,2
631,129	9,14
631,461	9,13
631,794	9,15
632,126	9,19
632,458	9,18
632,79	9,16
633,122	9,17
633,454	9,17
633,786	9,19
634,118	9,19
634,45	9,22
634,781	9,23
635,113	9,2
635,445	9,18
635,777	9,18
636,108	9,17
636,44	9,15
636,771	9,12
637,103	9,07
637,434	9,07
637,765	9,09
638,097	9,11
638,428	9,1
638,759	9,1
639,09	9,05
639,422	9,04
639,753	9,06
640,084	9,07
640,415	9,07
640,746	9,09
641,077	9,09
641,407	9,1
641,738	9,09
642,069	9,12
642,4	9,15
642,73	9,18
643,061	9,23
643,392	9,27
643,722	9,3
644,053	9,35
644,383	9,35
644,713	9,35
645,044	9,35
645,374	9,35
645,704	9,33
646,034	9,35
646,365	9,36
646,695	9,37
647,025	9,39
647,355	9,41
647,685	9,46
648,015	9,53
648,344	9,55
648,674	9,58
649,004	9,56
649,334	9,5
649,663	9,48
649,993	9,48
650,323	9,47
650,652	9,46
650,982	9,43
651,311	9,41
651,64	9,37
651,97	9,36
652,299	9,39
652,628	9,41
652,958	9,41
653,287	9,44
653,616	9,46
653,945	9,44
654,274	9,43
654,603	9,38
654,932	9,36
655,261	9,37
655,589	9,42
655,918	9,52
656,247	9,62
656,576	9,67
656,904	9,71
657,233	9,74
657,561	9,78
657,89	9,82
658,218	9,89
658,547	9,96
658,875	9,98
659,203	9,97
659,532	10,01
659,86	10,05
660,188	10,04
660,516	10,04
660,844	10,05
661,172	10,08
661,5	10,13
661,828	10,15
662,156	10,15
662,484	10,11
662,811	10,08
663,139	10,03
663,467	10,01
663,794	9,99
664,122	10,03
664,45	9,99
664,777	9,96
665,104	9,95
