Data from zc74042_2_Reflection_00003.txt Node
Date: Thu Mar 12 14:49:53 ART 2020
User: Ana
Spectrometer: USB2E3644
Trigger mode: 4
Integration Time (sec): 5,000000E-2
Scans to average: 10
Electric dark correction enabled: true
Nonlinearity correction enabled: false
Boxcar width: 10
XAxis mode: Wavelengths
Number of Pixels in Spectrum: 2048
>>>>>Begin Spectral Data<<<<<
178,315	116,67
178,696	121
179,076	131,98
179,457	129,66
179,838	102,02
180,218	71,28
180,599	51,28
180,979	128,57
181,36	64,34
181,74	106,43
182,121	124,31
182,501	117,25
182,881	102,38
183,262	103,01
183,642	108,22
184,022	115,34
184,402	124,06
184,783	125,63
185,163	123,36
185,543	123,02
185,923	124,32
186,303	127,05
186,683	127,81
187,063	127,14
187,443	122,71
187,823	117,33
188,203	117,16
188,583	120,59
188,963	125,58
189,343	128,87
189,723	126,61
190,102	124,28
190,482	129,11
190,862	134,54
191,242	136,03
191,621	133,96
192,001	131,69
192,38	128,12
192,76	128,18
193,14	130,36
193,519	130,19
193,898	128,95
194,278	129,3
194,657	129,07
195,037	129,37
195,416	129,81
195,795	129,31
196,175	127,49
196,554	125,46
196,933	122,26
197,312	120,46
197,692	119,69
198,071	118,63
198,45	115,43
198,829	114,02
199,208	114,28
199,587	115,45
199,966	114,79
200,345	114,79
200,724	114,83
201,103	114,22
201,482	113,93
201,86	113,92
202,239	113,48
202,618	112,64
202,997	111,94
203,375	111,72
203,754	112,9
204,133	113,86
204,511	114,15
204,89	113,6
205,269	113,71
205,647	115,47
206,026	117,72
206,404	120,11
206,782	120,36
207,161	119,57
207,539	118,35
207,918	118,71
208,296	119,07
208,674	118,93
209,052	118,64
209,431	118,05
209,809	116,67
210,187	114,93
210,565	115,34
210,943	116,65
211,321	119,09
211,699	119,92
212,077	120,16
212,455	121,24
212,833	123,6
213,211	124,47
213,589	124,55
213,967	123,22
214,345	120,69
214,722	119
215,1	118,75
215,478	117,99
215,855	117,1
216,233	116,71
216,611	116,88
216,988	117,96
217,366	118,86
217,743	120,01
218,121	121,64
218,498	122,09
218,876	121,99
219,253	121,19
219,631	122,19
220,008	123,07
220,385	122,71
220,762	121,34
221,14	124,22
221,517	125,25
221,894	126,01
222,271	129,35
222,648	134,04
223,025	137,2
223,402	139,7
223,78	141,99
224,157	143,09
224,533	142,43
224,91	142,41
225,287	144,6
225,664	149,06
226,041	155,41
226,418	161,57
226,795	163,94
227,171	164,93
227,548	166,2
227,925	167,86
228,301	170,72
228,678	173,03
229,055	168,91
229,431	167,73
229,808	170,46
230,184	173,38
230,561	174,24
230,937	175,74
231,313	178,3
231,69	181,41
232,066	182,41
232,442	185,55
232,819	191,3
233,195	191,61
233,571	192,87
233,947	192,65
234,323	190,82
234,699	194,87
235,075	198,99
235,451	201,47
235,827	204,01
236,203	206,78
236,579	212,61
236,955	225,67
237,331	240,1
237,707	255,95
238,083	282,81
238,459	333,64
238,834	423,4
239,21	600,93
239,586	949,7
239,961	1923,03
240,337	5870,37
240,713	-11696,3
241,088	-3283,33
241,464	-2399,24
241,839	-1811,3
242,215	-1094,61
242,59	-638,99
242,965	-352,8
243,341	-210,64
243,716	-143,09
244,091	-113,69
244,467	-98,53
244,842	-88,73
245,217	-81,33
245,592	-77,91
245,967	-78,56
246,343	-79,1
246,718	-79,52
247,093	-82,18
247,468	-83,66
247,843	-83,02
248,218	-79,43
248,593	-73,43
248,967	-67,45
249,342	-63,97
249,717	-61,85
250,092	-60,45
250,467	-61,11
250,841	-65,45
251,216	-74,4
251,591	-89,03
251,965	-102,33
252,34	-112,16
252,714	-123,23
253,089	-131,42
253,463	-137,51
253,838	-136,11
254,212	-130,81
254,587	-122,71
254,961	-108,09
255,335	-94,23
255,71	-79,59
256,084	-64,16
256,458	-52,95
256,832	-45,73
257,206	-41,7
257,581	-39,52
257,955	-38,01
258,329	-36,34
258,703	-34,53
259,077	-33,15
259,451	-31,52
259,825	-30,65
260,199	-30,54
260,572	-30,23
260,946	-30,12
261,32	-29,58
261,694	-28,65
262,068	-28,39
262,441	-28,34
262,815	-28,53
263,189	-28,31
263,562	-28,63
263,936	-30,67
264,309	-33,97
264,683	-37,32
265,056	-39,02
265,43	-39,54
265,803	-39,25
266,176	-38,9
266,55	-38,6
266,923	-38,06
267,296	-37,37
267,67	-35,86
268,043	-34,28
268,416	-31,96
268,789	-30,03
269,162	-28,41
269,535	-26,98
269,908	-25,59
270,281	-24,57
270,654	-24,45
271,027	-25,16
271,4	-25,44
271,773	-25,1
272,146	-24,51
272,519	-24,13
272,891	-24,09
273,264	-24,17
273,637	-24,61
274,01	-24,91
274,382	-25,48
274,755	-25,69
275,127	-25,93
275,5	-26,29
275,872	-26,62
276,245	-27,4
276,617	-28,24
276,99	-29,05
277,362	-29,98
277,734	-30,16
278,107	-29,87
278,479	-29,32
278,851	-28,44
279,223	-27,86
279,596	-27,49
279,968	-27,63
280,34	-27,48
280,712	-26,73
281,084	-25,74
281,456	-24,41
281,828	-23
282,2	-21,36
282,572	-20,27
282,944	-19,44
283,315	-18,93
283,687	-18,38
284,059	-18
284,431	-17,48
284,802	-16,72
285,174	-16,16
285,546	-15,87
285,917	-15,61
286,289	-15,4
286,66	-15,31
287,032	-15,07
287,403	-14,99
287,775	-14,86
288,146	-14,99
288,518	-15,36
288,889	-15,42
289,26	-15,68
289,632	-16,15
290,003	-16,84
290,374	-17,16
290,745	-17,42
291,116	-17,49
291,487	-17,5
291,858	-17,45
292,229	-17,47
292,6	-17,5
292,971	-16,92
293,342	-16,14
293,713	-15,37
294,084	-14,58
294,455	-13,73
294,826	-13,32
295,196	-13,1
295,567	-13,1
295,938	-12,76
296,308	-12,29
296,679	-11,95
297,05	-11,62
297,42	-11,24
297,791	-10,74
298,161	-10,48
298,532	-10,21
298,902	-10
299,272	-9,89
299,643	-9,74
300,013	-9,55
300,383	-9,31
300,754	-9,53
301,124	-9,91
301,494	-10,33
301,864	-10,64
302,234	-10,91
302,604	-10,9
302,974	-10,76
303,344	-10,45
303,714	-10,18
304,084	-9,94
304,454	-9,79
304,824	-9,61
305,194	-9,5
305,563	-9,49
305,933	-9,38
306,303	-9,12
306,673	-8,68
307,042	-8,12
307,412	-7,61
307,781	-7,13
308,151	-6,86
308,521	-6,62
308,89	-6,32
309,259	-6,18
309,629	-6,14
309,998	-6,18
310,368	-6,27
310,737	-6,27
311,106	-6,21
311,475	-6,2
311,845	-6,23
312,214	-6,19
312,583	-6,2
312,952	-6,23
313,321	-6,23
313,69	-6,1
314,059	-6,08
314,428	-6,23
314,797	-6,55
315,166	-6,96
315,535	-7,36
315,904	-7,73
316,272	-7,94
316,641	-8,16
317,01	-8,22
317,379	-8,22
317,747	-8,04
318,116	-7,75
318,484	-7,55
318,853	-7,56
319,221	-7,54
319,59	-7,49
319,958	-7,41
320,327	-7,39
320,695	-7,41
321,063	-7,21
321,432	-6,93
321,8	-6,64
322,168	-6,47
322,536	-6,32
322,905	-5,84
323,273	-5,4
323,641	-5,06
324,009	-4,82
324,377	-4,67
324,745	-4,51
325,113	-4,19
325,481	-3,93
325,849	-3,87
326,216	-3,79
326,584	-3,53
326,952	-3,25
327,32	-2,95
327,687	-2,8
328,055	-2,49
328,423	-2,21
328,79	-2,18
329,158	-2,27
329,525	-2,3
329,893	-2,18
330,26	-1,95
330,628	-1,96
330,995	-2,09
331,362	-2,14
331,73	-2,04
332,097	-1,87
332,464	-1,68
332,831	-1,65
333,199	-1,67
333,566	-1,61
333,933	-1,49
334,3	-1,43
334,667	-1,47
335,034	-1,53
335,401	-1,54
335,768	-1,54
336,135	-1,5
336,502	-1,41
336,868	-1,35
337,235	-1,33
337,602	-1,3
337,969	-1,24
338,335	-1,1
338,702	-0,86
339,069	-0,71
339,435	-0,71
339,802	-0,69
340,168	-0,74
340,535	-0,72
340,901	-0,72
341,267	-0,69
341,634	-0,68
342	-0,65
342,366	-0,54
342,733	-0,47
343,099	-0,33
343,465	-0,31
343,831	-0,32
344,197	-0,26
344,563	-0,17
344,929	-0,13
345,295	-0,05
345,661	0,04
346,027	0,1
346,393	0,17
346,759	0,26
347,125	0,32
347,491	0,37
347,856	0,48
348,222	0,51
348,588	0,65
348,953	0,83
349,319	0,92
349,684	1,01
350,05	1,01
350,415	1,07
350,781	1,1
351,146	1,18
351,512	1,3
351,877	1,35
352,242	1,38
352,608	1,53
352,973	1,65
353,338	1,76
353,703	1,84
354,068	1,8
354,433	1,8
354,798	1,85
355,164	1,94
355,528	1,97
355,893	2,01
356,258	2
356,623	2,01
356,988	2,12
357,353	2,18
357,718	2,27
358,082	2,32
358,447	2,37
358,812	2,45
359,176	2,49
359,541	2,58
359,905	2,68
360,27	2,76
360,634	2,79
360,999	2,82
361,363	2,85
361,728	2,95
362,092	3
362,456	3,09
362,821	3,16
363,185	3,26
363,549	3,39
363,913	3,45
364,277	3,5
364,641	3,51
365,005	3,59
365,369	3,68
365,733	3,8
366,097	3,86
366,461	3,9
366,825	4
367,189	4,05
367,553	4,12
367,916	4,18
368,28	4,23
368,644	4,27
369,007	4,34
369,371	4,41
369,734	4,53
370,098	4,57
370,461	4,63
370,825	4,7
371,188	4,79
371,552	4,89
371,915	4,97
372,278	5,08
372,642	5,18
373,005	5,28
373,368	5,34
373,731	5,46
374,094	5,58
374,457	5,67
374,82	5,77
375,183	5,87
375,546	5,97
375,909	6,02
376,272	6,14
376,635	6,23
376,998	6,31
377,361	6,35
377,723	6,44
378,086	6,51
378,449	6,54
378,811	6,55
379,174	6,61
379,537	6,66
379,899	6,71
380,262	6,7
380,624	6,73
380,987	6,82
381,349	6,85
381,711	6,9
382,074	6,95
382,436	7,01
382,798	7,09
383,16	7,11
383,522	7,17
383,884	7,19
384,247	7,2
384,609	7,24
384,971	7,3
385,333	7,33
385,695	7,34
386,056	7,34
386,418	7,37
386,78	7,38
387,142	7,4
387,504	7,41
387,865	7,47
388,227	7,5
388,589	7,47
388,95	7,51
389,312	7,52
389,673	7,53
390,035	7,53
390,396	7,51
390,758	7,52
391,119	7,54
391,48	7,57
391,842	7,59
392,203	7,59
392,564	7,6
392,925	7,64
393,286	7,68
393,648	7,74
394,009	7,81
394,37	7,83
394,731	7,9
395,092	7,93
395,452	7,96
395,813	7,98
396,174	8,01
396,535	8
396,896	7,98
397,257	8,01
397,617	8,04
397,978	8,07
398,338	8,09
398,699	8,12
399,06	8,17
399,42	8,19
399,781	8,23
400,141	8,24
400,501	8,26
400,862	8,25
401,222	8,24
401,582	8,21
401,943	8,22
402,303	8,19
402,663	8,18
403,023	8,16
403,383	8,17
403,743	8,16
404,103	8,2
404,463	8,25
404,823	8,28
405,183	8,31
405,543	8,32
405,903	8,31
406,262	8,31
406,622	8,28
406,982	8,26
407,342	8,27
407,701	8,28
408,061	8,26
408,42	8,28
408,78	8,29
409,139	8,3
409,499	8,32
409,858	8,35
410,217	8,38
410,577	8,41
410,936	8,42
411,295	8,42
411,655	8,39
412,014	8,36
412,373	8,32
412,732	8,27
413,091	8,25
413,45	8,21
413,809	8,17
414,168	8,1
414,527	8,06
414,886	8,02
415,245	7,97
415,603	7,95
415,962	7,9
416,321	7,86
416,679	7,83
417,038	7,76
417,397	7,71
417,755	7,67
418,114	7,63
418,472	7,61
418,831	7,58
419,189	7,56
419,547	7,56
419,906	7,54
420,264	7,51
420,622	7,48
420,981	7,48
421,339	7,48
421,697	7,49
422,055	7,5
422,413	7,51
422,771	7,52
423,129	7,53
423,487	7,55
423,845	7,58
424,203	7,61
424,56	7,64
424,918	7,67
425,276	7,69
425,634	7,74
425,991	7,77
426,349	7,81
426,707	7,85
427,064	7,88
427,422	7,89
427,779	7,95
428,137	8,01
428,494	8,05
428,851	8,08
429,209	8,09
429,566	8,11
429,923	8,1
430,28	8,1
430,637	8,11
430,995	8,1
431,352	8,1
431,709	8,09
432,066	8,1
432,423	8,12
432,78	8,12
433,137	8,09
433,493	8,07
433,85	8,08
434,207	8,06
434,564	8,04
434,92	8,04
435,277	8,02
435,634	8,01
435,99	7,98
436,347	7,97
436,703	7,97
437,06	7,95
437,416	7,95
437,773	7,95
438,129	7,93
438,485	7,94
438,841	7,94
439,198	7,93
439,554	7,94
439,91	7,95
440,266	7,97
440,622	7,98
440,978	7,98
441,334	7,95
441,69	7,94
442,046	7,92
442,402	7,92
442,758	7,91
443,113	7,91
443,469	7,91
443,825	7,9
444,181	7,9
444,536	7,92
444,892	7,91
445,247	7,92
445,603	7,93
445,958	7,94
446,314	7,95
446,669	7,97
447,025	7,97
447,38	7,97
447,735	7,97
448,09	7,98
448,446	7,99
448,801	8,02
449,156	8,04
449,511	8,07
449,866	8,1
450,221	8,14
450,576	8,17
450,931	8,22
451,286	8,27
451,641	8,31
451,995	8,35
452,35	8,39
452,705	8,41
453,06	8,44
453,414	8,43
453,769	8,44
454,123	8,42
454,478	8,43
454,832	8,42
455,187	8,4
455,541	8,39
455,896	8,36
456,25	8,34
456,604	8,33
456,958	8,3
457,313	8,28
457,667	8,24
458,021	8,25
458,375	8,25
458,729	8,26
459,083	8,28
459,437	8,27
459,791	8,27
460,145	8,27
460,499	8,26
460,852	8,27
461,206	8,29
461,56	8,28
461,914	8,29
462,267	8,3
462,621	8,31
462,974	8,32
463,328	8,34
463,681	8,37
464,035	8,41
464,388	8,44
464,742	8,47
465,095	8,5
465,448	8,51
465,801	8,5
466,155	8,48
466,508	8,45
466,861	8,45
467,214	8,45
467,567	8,46
467,92	8,48
468,273	8,47
468,626	8,46
468,979	8,47
469,332	8,48
469,684	8,49
470,037	8,49
470,39	8,5
470,743	8,51
471,095	8,52
471,448	8,51
471,8	8,51
472,153	8,53
472,505	8,55
472,858	8,54
473,21	8,57
473,562	8,59
473,915	8,6
474,267	8,59
474,619	8,58
474,971	8,57
475,324	8,56
475,676	8,57
476,028	8,58
476,38	8,57
476,732	8,56
477,084	8,56
477,436	8,55
477,787	8,54
478,139	8,53
478,491	8,53
478,843	8,51
479,195	8,51
479,546	8,47
479,898	8,43
480,249	8,4
480,601	8,35
480,952	8,31
481,304	8,29
481,655	8,28
482,007	8,26
482,358	8,25
482,709	8,24
483,061	8,23
483,412	8,22
483,763	8,22
484,114	8,21
484,465	8,2
484,816	8,19
485,167	8,18
485,518	8,18
485,869	8,17
486,22	8,17
486,571	8,16
486,922	8,17
487,272	8,17
487,623	8,18
487,974	8,19
488,324	8,21
488,675	8,21
489,025	8,22
489,376	8,23
489,726	8,24
490,077	8,25
490,427	8,26
490,778	8,27
491,128	8,28
491,478	8,29
491,828	8,32
492,179	8,33
492,529	8,37
492,879	8,39
493,229	8,42
493,579	8,44
493,929	8,45
494,279	8,47
494,629	8,48
494,979	8,5
495,328	8,52
495,678	8,55
496,028	8,59
496,378	8,63
496,727	8,66
497,077	8,69
497,426	8,71
497,776	8,71
498,125	8,71
498,475	8,72
498,824	8,73
499,174	8,73
499,523	8,75
499,872	8,75
500,221	8,76
500,571	8,76
500,92	8,77
501,269	8,76
501,618	8,76
501,967	8,76
502,316	8,78
502,665	8,78
503,014	8,77
503,363	8,77
503,711	8,74
504,06	8,75
504,409	8,75
504,758	8,74
505,106	8,75
505,455	8,75
505,803	8,75
506,152	8,75
506,5	8,74
506,849	8,75
507,197	8,74
507,546	8,74
507,894	8,75
508,242	8,75
508,59	8,75
508,939	8,74
509,287	8,75
509,635	8,75
509,983	8,76
510,331	8,77
510,679	8,79
511,027	8,8
511,375	8,81
511,723	8,82
512,07	8,84
512,418	8,84
512,766	8,86
513,114	8,88
513,461	8,89
513,809	8,9
514,156	8,89
514,504	8,9
514,851	8,9
515,199	8,91
515,546	8,91
515,893	8,92
516,241	8,94
516,588	8,95
516,935	8,94
517,282	8,95
517,63	8,97
517,977	8,97
518,324	8,99
518,671	8,99
519,018	8,99
519,365	8,98
519,711	9,01
520,058	9,01
520,405	9,01
520,752	9,02
521,099	9,03
521,445	9,04
521,792	9,04
522,138	9,04
522,485	9,01
522,832	9,02
523,178	9,03
523,524	9,02
523,871	9,02
524,217	9,02
524,563	9,01
524,91	8,97
525,256	8,94
525,602	8,92
525,948	8,91
526,294	8,89
526,64	8,87
526,986	8,85
527,332	8,83
527,678	8,83
528,024	8,82
528,37	8,83
528,716	8,82
529,061	8,83
529,407	8,84
529,753	8,84
530,098	8,84
530,444	8,83
530,789	8,83
531,135	8,83
531,48	8,84
531,826	8,84
532,171	8,85
532,516	8,87
532,862	8,9
533,207	8,91
533,552	8,94
533,897	8,96
534,242	8,96
534,587	8,98
534,932	9
535,277	9,01
535,622	9,01
535,967	9,03
536,312	9,05
536,657	9,05
537,001	9,09
537,346	9,12
537,691	9,13
538,035	9,13
538,38	9,14
538,724	9,13
539,069	9,11
539,413	9,1
539,758	9,09
540,102	9,09
540,446	9,08
540,791	9,08
541,135	9,08
541,479	9,09
541,823	9,09
542,167	9,09
542,512	9,11
542,856	9,1
543,2	9,09
543,543	9,07
543,887	9,07
544,231	9,06
544,575	9,05
544,919	9,05
545,262	9,07
545,606	9,08
545,95	9,08
546,293	9,11
546,637	9,14
546,98	9,14
547,324	9,15
547,667	9,19
548,011	9,2
548,354	9,21
548,697	9,21
549,04	9,2
549,384	9,19
549,727	9,18
550,07	9,19
550,413	9,21
550,756	9,21
551,099	9,23
551,442	9,22
551,785	9,26
552,128	9,26
552,47	9,26
552,813	9,28
553,156	9,3
553,499	9,3
553,841	9,3
554,184	9,3
554,526	9,29
554,869	9,27
555,211	9,25
555,554	9,25
555,896	9,23
556,238	9,22
556,581	9,2
556,923	9,16
557,265	9,13
557,607	9,11
557,949	9,1
558,291	9,09
558,633	9,09
558,975	9,06
559,317	9,04
559,659	9,01
560,001	8,99
560,343	8,97
560,685	8,95
561,026	8,9
561,368	8,88
561,71	8,85
562,051	8,82
562,393	8,81
562,734	8,79
563,076	8,78
563,417	8,78
563,759	8,76
564,1	8,75
564,441	8,76
564,782	8,73
565,124	8,72
565,465	8,71
565,806	8,69
566,147	8,67
566,488	8,66
566,829	8,67
567,17	8,64
567,511	8,61
567,851	8,6
568,192	8,59
568,533	8,59
568,874	8,59
569,214	8,61
569,555	8,58
569,895	8,57
570,236	8,55
570,576	8,54
570,917	8,53
571,257	8,51
571,598	8,5
571,938	8,49
572,278	8,47
572,618	8,46
572,959	8,48
573,299	8,46
573,639	8,45
573,979	8,43
574,319	8,43
574,659	8,43
574,999	8,43
575,339	8,42
575,678	8,4
576,018	8,39
576,358	8,36
576,698	8,36
577,037	8,33
577,377	8,31
577,716	8,3
578,056	8,3
578,395	8,29
578,735	8,28
579,074	8,28
579,413	8,29
579,753	8,27
580,092	8,23
580,431	8,23
580,77	8,23
581,109	8,21
581,448	8,19
581,787	8,15
582,126	8,11
582,465	8,09
582,804	8,08
583,143	8,08
583,482	8,08
583,82	8,09
584,159	8,12
584,498	8,13
584,836	8,14
585,175	8,13
585,514	8,16
585,852	8,15
586,19	8,17
586,529	8,16
586,867	8,15
587,205	8,15
587,544	8,14
587,882	8,14
588,22	8,14
588,558	8,15
588,896	8,18
589,234	8,2
589,572	8,2
589,91	8,2
590,248	8,17
590,586	8,16
590,924	8,17
591,262	8,15
591,599	8,11
591,937	8,11
592,275	8,11
592,612	8,08
592,95	8,1
593,287	8,11
593,625	8,13
593,962	8,14
594,299	8,15
594,637	8,16
594,974	8,2
595,311	8,21
595,648	8,21
595,985	8,19
596,322	8,2
596,659	8,21
596,996	8,2
597,333	8,19
597,67	8,18
598,007	8,17
598,344	8,19
598,681	8,25
599,017	8,25
599,354	8,24
599,691	8,25
600,027	8,28
600,364	8,27
600,7	8,3
601,037	8,33
601,373	8,35
601,71	8,38
602,046	8,4
602,382	8,39
602,718	8,41
603,054	8,44
603,391	8,45
603,727	8,46
604,063	8,5
604,399	8,53
604,735	8,55
605,071	8,59
605,406	8,58
605,742	8,59
606,078	8,62
606,414	8,66
606,749	8,7
607,085	8,69
607,421	8,69
607,756	8,67
608,092	8,66
608,427	8,65
608,762	8,63
609,098	8,6
609,433	8,61
609,768	8,61
610,104	8,6
610,439	8,57
610,774	8,56
611,109	8,56
611,444	8,54
611,779	8,51
612,114	8,48
612,449	8,48
612,784	8,45
613,118	8,41
613,453	8,38
613,788	8,33
614,123	8,26
614,457	8,23
614,792	8,19
615,126	8,17
615,461	8,14
615,795	8,14
616,13	8,11
616,464	8,07
616,798	8,03
617,132	8,01
617,467	8,02
617,801	8,01
618,135	7,99
618,469	8,02
618,803	8,06
619,137	8,09
619,471	8,12
619,805	8,11
620,139	8,11
620,472	8,11
620,806	8,12
621,14	8,13
621,473	8,13
621,807	8,14
622,141	8,14
622,474	8,13
622,808	8,14
623,141	8,19
623,474	8,26
623,808	8,31
624,141	8,36
624,474	8,42
624,807	8,44
625,141	8,46
625,474	8,47
625,807	8,47
626,14	8,44
626,473	8,4
626,806	8,4
627,138	8,42
627,471	8,43
627,804	8,45
628,137	8,48
628,469	8,51
628,802	8,51
629,135	8,52
629,467	8,54
629,8	8,55
630,132	8,53
630,465	8,52
630,797	8,5
631,129	8,48
631,461	8,46
631,794	8,47
632,126	8,46
632,458	8,43
632,79	8,42
633,122	8,46
633,454	8,5
633,786	8,51
634,118	8,53
634,45	8,54
634,781	8,55
635,113	8,54
635,445	8,54
635,777	8,53
636,108	8,53
636,44	8,51
636,771	8,51
637,103	8,49
637,434	8,48
637,765	8,48
638,097	8,48
638,428	8,47
638,759	8,44
639,09	8,43
639,422	8,46
639,753	8,44
640,084	8,42
640,415	8,41
640,746	8,41
641,077	8,41
641,407	8,39
641,738	8,36
642,069	8,36
642,4	8,38
642,73	8,38
643,061	8,4
643,392	8,4
643,722	8,38
644,053	8,39
644,383	8,37
644,713	8,36
645,044	8,33
645,374	8,34
645,704	8,36
646,034	8,37
646,365	8,39
646,695	8,4
647,025	8,45
647,355	8,5
647,685	8,52
648,015	8,51
648,344	8,51
648,674	8,53
649,004	8,54
649,334	8,52
649,663	8,53
649,993	8,56
650,323	8,63
650,652	8,66
650,982	8,69
651,311	8,68
651,64	8,7
651,97	8,74
652,299	8,76
652,628	8,77
652,958	8,81
653,287	8,85
653,616	8,86
653,945	8,81
654,274	8,75
654,603	8,76
654,932	8,75
655,261	8,78
655,589	8,81
655,918	8,86
656,247	8,91
656,576	8,95
656,904	8,98
657,233	8,95
657,561	8,96
657,89	8,99
658,218	9,03
658,547	9,04
658,875	9,03
659,203	9,01
659,532	9,03
659,86	9,02
660,188	9
660,516	9,04
660,844	9,09
661,172	9,14
661,5	9,17
661,828	9,2
662,156	9,2
662,484	9,19
662,811	9,16
663,139	9,13
663,467	9,12
663,794	9,08
664,122	9,09
664,45	9,06
