Data from zc74010_3_Reflection_00002.txt Node
Date: Thu Mar 12 15:00:34 ART 2020
User: Ana
Spectrometer: USB2E3644
Trigger mode: 4
Integration Time (sec): 5,000000E-2
Scans to average: 10
Electric dark correction enabled: true
Nonlinearity correction enabled: false
Boxcar width: 10
XAxis mode: Wavelengths
Number of Pixels in Spectrum: 2048
>>>>>Begin Spectral Data<<<<<
178,315	87,81
178,696	93,8
179,076	95,21
179,457	89,09
179,838	92,38
180,218	110,37
180,599	77,78
180,979	96,77
181,36	219,44
181,74	125,31
182,121	105,83
182,501	105,48
182,881	103,39
183,262	98,38
183,642	95,15
184,022	94,03
184,402	91,85
184,783	91,42
185,163	91,17
185,543	93,14
185,923	92,78
186,303	92,6
186,683	93,06
187,063	93,29
187,443	95,1
187,823	96,19
188,203	97,38
188,583	97,88
188,963	98,21
189,343	96,94
189,723	98,17
190,102	102,15
190,482	107,54
190,862	110,14
191,242	113,89
191,621	115,89
192,001	116,64
192,38	117,64
192,76	115,7
193,14	114,88
193,519	114,07
193,898	114,7
194,278	114,91
194,657	116,34
195,037	116,84
195,416	114,41
195,795	113,58
196,175	113,09
196,554	112,01
196,933	110,84
197,312	110,56
197,692	109,67
198,071	107,94
198,45	106,13
198,829	105,21
199,208	104,54
199,587	104,21
199,966	103,62
200,345	103,32
200,724	104,34
201,103	105,38
201,482	107,03
201,86	108,28
202,239	108,2
202,618	108,18
202,997	109,08
203,375	110,83
203,754	112,19
204,133	113,25
204,511	114,09
204,89	115,7
205,269	117,34
205,647	118,56
206,026	119,22
206,404	120,23
206,782	120,25
207,161	120,17
207,539	119,46
207,918	119,89
208,296	121,13
208,674	121,96
209,052	122,75
209,431	123,47
209,809	123,61
210,187	123,95
210,565	123,64
210,943	123,25
211,321	123,38
211,699	124,23
212,077	124,72
212,455	124,93
212,833	124,98
213,211	124,55
213,589	123,8
213,967	122,14
214,345	120,85
214,722	121,54
215,1	121,61
215,478	121,21
215,855	120,53
216,233	120,06
216,611	120,69
216,988	120,06
217,366	118,62
217,743	118,28
218,121	119,26
218,498	120,25
218,876	119,69
219,253	117,01
219,631	113,82
220,008	110,82
220,385	109,49
220,762	108,13
221,14	106,22
221,517	105,59
221,894	106,22
222,271	105,85
222,648	105,55
223,025	105,33
223,402	105,51
223,78	105,67
224,157	105,45
224,533	103,98
224,91	104,34
225,287	106,34
225,664	107,94
226,041	108,14
226,418	108,39
226,795	109,53
227,171	111,65
227,548	114,11
227,925	116,8
228,301	119,23
228,678	121,17
229,055	123,91
229,431	126,76
229,808	129,32
230,184	131,19
230,561	132,56
230,937	134,08
231,313	135,84
231,69	137,99
232,066	139,69
232,442	141,85
232,819	142,42
233,195	141,56
233,571	141,21
233,947	143,33
234,323	145,44
234,699	146,68
235,075	147,47
235,451	148,96
235,827	150,94
236,203	152,3
236,579	155,6
236,955	160,39
237,331	167,04
237,707	176,13
238,083	188,71
238,459	204,35
238,834	230,89
239,21	271,99
239,586	325,3
239,961	387,28
240,337	453,97
240,713	513,68
241,088	581,26
241,464	667,05
241,839	780,22
242,215	1035,38
242,59	2425,17
242,965	-1485,42
243,341	-420,97
243,716	-227,51
244,091	-162,41
244,467	-133,45
244,842	-116,9
245,217	-106,59
245,592	-101,68
245,967	-100,87
246,343	-97,95
246,718	-95,81
247,093	-97,84
247,468	-100,54
247,843	-100,28
248,218	-96,4
248,593	-89,82
248,967	-82,79
249,342	-78,96
249,717	-76,8
250,092	-75,01
250,467	-75,29
250,841	-80,63
251,216	-93,21
251,591	-113,55
251,965	-136,39
252,34	-153,9
252,714	-172,86
253,089	-186,01
253,463	-195,43
253,838	-192,95
254,212	-187,51
254,587	-178,05
254,961	-158
255,335	-135,6
255,71	-112,3
256,084	-87,5
256,458	-69,45
256,832	-58,84
257,206	-53,25
257,581	-50,31
257,955	-48,71
258,329	-46,88
258,703	-44,43
259,077	-42,28
259,451	-40,28
259,825	-39,13
260,199	-38,93
260,572	-38,14
260,946	-37,88
261,32	-37,29
261,694	-36,78
262,068	-36,65
262,441	-36,37
262,815	-36,33
263,189	-35,82
263,562	-36,12
263,936	-38,59
264,309	-42,53
264,683	-46,76
265,056	-48,76
265,43	-49,45
265,803	-49,31
266,176	-48,87
266,55	-48,59
266,923	-47,68
267,296	-46,64
267,67	-45,21
268,043	-43,49
268,416	-41,09
268,789	-38,54
269,162	-36,32
269,535	-34,34
269,908	-32,71
270,281	-31,84
270,654	-31,84
271,027	-32,4
271,4	-32,86
271,773	-32,88
272,146	-32,89
272,519	-33,04
272,891	-33,27
273,264	-33,6
273,637	-33,73
274,01	-33,76
274,382	-34,53
274,755	-35,03
275,127	-35,34
275,5	-35,36
275,872	-35,1
276,245	-35,24
276,617	-35,93
276,99	-36,43
277,362	-37,36
277,734	-37,97
278,107	-37,57
278,479	-36,82
278,851	-36,05
279,223	-35,43
279,596	-34,61
279,968	-34,05
280,34	-33,14
280,712	-32,36
281,084	-30,97
281,456	-29,37
281,828	-27,82
282,2	-25,51
282,572	-23,83
282,944	-22,73
283,315	-22,13
283,687	-21,78
284,059	-21,58
284,431	-21,29
284,802	-20,78
285,174	-20,23
285,546	-19,74
285,917	-19,25
286,289	-18,74
286,66	-18,41
287,032	-17,95
287,403	-17,68
287,775	-17,54
288,146	-17,66
288,518	-17,74
288,889	-17,71
289,26	-17,9
289,632	-18,48
290,003	-19,18
290,374	-19,54
290,745	-19,7
291,116	-19,73
291,487	-19,71
291,858	-19,66
292,229	-19,52
292,6	-19,3
292,971	-18,68
293,342	-18,06
293,713	-17,42
294,084	-16,89
294,455	-16,24
294,826	-15,93
295,196	-15,98
295,567	-16,18
295,938	-16,02
296,308	-15,78
296,679	-15,62
297,05	-15,37
297,42	-14,92
297,791	-14,52
298,161	-14,5
298,532	-14,29
298,902	-14,07
299,272	-13,94
299,643	-13,72
300,013	-13,24
300,383	-12,98
300,754	-13,05
301,124	-13,29
301,494	-13,66
301,864	-13,97
302,234	-14,33
302,604	-14,37
302,974	-14,25
303,344	-13,88
303,714	-13,51
304,084	-13,16
304,454	-13,01
304,824	-12,89
305,194	-12,89
305,563	-12,89
305,933	-12,65
306,303	-12,46
306,673	-12,15
307,042	-11,74
307,412	-11,24
307,781	-10,85
308,151	-10,57
308,521	-10,35
308,89	-10,15
309,259	-10,17
309,629	-10,1
309,998	-9,89
310,368	-9,84
310,737	-9,63
311,106	-9,42
311,475	-9,33
311,845	-9,41
312,214	-9,41
312,583	-9,45
312,952	-9,43
313,321	-9,32
313,69	-9
314,059	-8,79
314,428	-8,79
314,797	-8,85
315,166	-9,1
315,535	-9,52
315,904	-9,94
316,272	-10,21
316,641	-10,27
317,01	-10,02
317,379	-9,85
317,747	-9,76
318,116	-9,54
318,484	-9,48
318,853	-9,53
319,221	-9,61
319,59	-9,68
319,958	-9,56
320,327	-9,38
320,695	-9,26
321,063	-9,12
321,432	-9,09
321,8	-8,93
322,168	-8,84
322,536	-8,89
322,905	-8,61
323,273	-8,32
323,641	-8,04
324,009	-7,81
324,377	-7,7
324,745	-7,58
325,113	-7,4
325,481	-7,2
325,849	-7,09
326,216	-7
326,584	-6,84
326,952	-6,61
327,32	-6,25
327,687	-6,03
328,055	-5,8
328,423	-5,56
328,79	-5,48
329,158	-5,44
329,525	-5,48
329,893	-5,36
330,26	-5,11
330,628	-5,04
330,995	-4,94
331,362	-4,9
331,73	-4,91
332,097	-4,83
332,464	-4,76
332,831	-4,65
333,199	-4,65
333,566	-4,63
333,933	-4,53
334,3	-4,42
334,667	-4,31
335,034	-4,25
335,401	-4,2
335,768	-4,14
336,135	-4,13
336,502	-4,05
336,868	-3,94
337,235	-3,85
337,602	-3,8
337,969	-3,71
338,335	-3,57
338,702	-3,41
339,069	-3,25
339,435	-3,12
339,802	-2,98
340,168	-2,92
340,535	-2,84
340,901	-2,83
341,267	-2,82
341,634	-2,71
342	-2,59
342,366	-2,51
342,733	-2,48
343,099	-2,41
343,465	-2,42
343,831	-2,43
344,197	-2,41
344,563	-2,42
344,929	-2,42
345,295	-2,33
345,661	-2,24
346,027	-2,24
346,393	-2,28
346,759	-2,21
347,125	-2,12
347,491	-2,06
347,856	-2,03
348,222	-2,04
348,588	-1,88
348,953	-1,73
349,319	-1,77
349,684	-1,8
350,05	-1,81
350,415	-1,73
350,781	-1,7
351,146	-1,62
351,512	-1,5
351,877	-1,46
352,242	-1,41
352,608	-1,34
352,973	-1,28
353,338	-1,22
353,703	-1,14
354,068	-1,09
354,433	-1,06
354,798	-1,02
355,164	-0,98
355,528	-0,93
355,893	-0,91
356,258	-0,94
356,623	-0,88
356,988	-0,73
357,353	-0,6
357,718	-0,51
358,082	-0,47
358,447	-0,39
358,812	-0,28
359,176	-0,22
359,541	-0,11
359,905	-0,02
360,27	0,03
360,634	0,05
360,999	0,11
361,363	0,17
361,728	0,25
362,092	0,28
362,456	0,3
362,821	0,37
363,185	0,47
363,549	0,62
363,913	0,67
364,277	0,68
364,641	0,67
365,005	0,7
365,369	0,75
365,733	0,85
366,097	0,91
366,461	0,95
366,825	1,01
367,189	1,04
367,553	1,14
367,916	1,31
368,28	1,45
368,644	1,48
369,007	1,53
369,371	1,6
369,734	1,7
370,098	1,78
370,461	1,84
370,825	1,85
371,188	1,87
371,552	1,96
371,915	2,01
372,278	2,1
372,642	2,2
373,005	2,28
373,368	2,38
373,731	2,46
374,094	2,54
374,457	2,6
374,82	2,7
375,183	2,73
375,546	2,72
375,909	2,74
376,272	2,85
376,635	2,96
376,998	3,05
377,361	3,13
377,723	3,2
378,086	3,28
378,449	3,36
378,811	3,4
379,174	3,46
379,537	3,53
379,899	3,58
380,262	3,61
380,624	3,64
380,987	3,66
381,349	3,69
381,711	3,72
382,074	3,78
382,436	3,85
382,798	3,95
383,16	4,02
383,522	4,07
383,884	4,09
384,247	4,1
384,609	4,13
384,971	4,14
385,333	4,15
385,695	4,18
386,056	4,21
386,418	4,24
386,78	4,25
387,142	4,27
387,504	4,29
387,865	4,31
388,227	4,34
388,589	4,36
388,95	4,38
389,312	4,4
389,673	4,4
390,035	4,37
390,396	4,36
390,758	4,37
391,119	4,37
391,48	4,38
391,842	4,39
392,203	4,38
392,564	4,38
392,925	4,43
393,286	4,44
393,648	4,44
394,009	4,46
394,37	4,47
394,731	4,49
395,092	4,49
395,452	4,5
395,813	4,53
396,174	4,54
396,535	4,56
396,896	4,57
397,257	4,61
397,617	4,67
397,978	4,71
398,338	4,74
398,699	4,8
399,06	4,87
399,42	4,9
399,781	4,91
400,141	4,93
400,501	4,91
400,862	4,9
401,222	4,92
401,582	4,92
401,943	4,95
402,303	4,97
402,663	5
403,023	5
403,383	4,99
403,743	5
404,103	5,03
404,463	5,06
404,823	5,09
405,183	5,09
405,543	5,1
405,903	5,09
406,262	5,06
406,622	5,01
406,982	5
407,342	5,03
407,701	5,04
408,061	5,06
408,42	5,08
408,78	5,09
409,139	5,08
409,499	5,09
409,858	5,1
410,217	5,12
410,577	5,12
410,936	5,12
411,295	5,12
411,655	5,1
412,014	5,07
412,373	5,02
412,732	4,97
413,091	4,93
413,45	4,89
413,809	4,84
414,168	4,8
414,527	4,77
414,886	4,71
415,245	4,67
415,603	4,62
415,962	4,57
416,321	4,53
416,679	4,5
417,038	4,45
417,397	4,4
417,755	4,35
418,114	4,31
418,472	4,3
418,831	4,29
419,189	4,28
419,547	4,27
419,906	4,24
420,264	4,21
420,622	4,17
420,981	4,16
421,339	4,17
421,697	4,17
422,055	4,17
422,413	4,17
422,771	4,19
423,129	4,21
423,487	4,23
423,845	4,24
424,203	4,27
424,56	4,3
424,918	4,32
425,276	4,36
425,634	4,39
425,991	4,42
426,349	4,42
426,707	4,43
427,064	4,47
427,422	4,5
427,779	4,56
428,137	4,61
428,494	4,66
428,851	4,68
429,209	4,67
429,566	4,66
429,923	4,65
430,28	4,63
430,637	4,64
430,995	4,63
431,352	4,62
431,709	4,61
432,066	4,6
432,423	4,6
432,78	4,59
433,137	4,59
433,493	4,56
433,85	4,56
434,207	4,53
434,564	4,51
434,92	4,5
435,277	4,48
435,634	4,47
435,99	4,43
436,347	4,42
436,703	4,41
437,06	4,41
437,416	4,42
437,773	4,4
438,129	4,37
438,485	4,36
438,841	4,36
439,198	4,35
439,554	4,34
439,91	4,34
440,266	4,34
440,622	4,34
440,978	4,33
441,334	4,31
441,69	4,28
442,046	4,27
442,402	4,25
442,758	4,22
443,113	4,22
443,469	4,22
443,825	4,21
444,181	4,22
444,536	4,24
444,892	4,24
445,247	4,24
445,603	4,26
445,958	4,27
446,314	4,27
446,669	4,28
447,025	4,3
447,38	4,3
447,735	4,3
448,09	4,3
448,446	4,31
448,801	4,32
449,156	4,35
449,511	4,37
449,866	4,41
450,221	4,45
450,576	4,48
450,931	4,51
451,286	4,54
451,641	4,57
451,995	4,58
452,35	4,62
452,705	4,64
453,06	4,64
453,414	4,65
453,769	4,65
454,123	4,64
454,478	4,62
454,832	4,62
455,187	4,59
455,541	4,57
455,896	4,55
456,25	4,53
456,604	4,49
456,958	4,47
457,313	4,44
457,667	4,42
458,021	4,42
458,375	4,42
458,729	4,44
459,083	4,44
459,437	4,43
459,791	4,42
460,145	4,43
460,499	4,43
460,852	4,43
461,206	4,42
461,56	4,42
461,914	4,44
462,267	4,44
462,621	4,46
462,974	4,47
463,328	4,49
463,681	4,5
464,035	4,54
464,388	4,56
464,742	4,59
465,095	4,61
465,448	4,61
465,801	4,61
466,155	4,59
466,508	4,58
466,861	4,56
467,214	4,54
467,567	4,52
467,92	4,52
468,273	4,51
468,626	4,5
468,979	4,48
469,332	4,47
469,684	4,46
470,037	4,47
470,39	4,47
470,743	4,49
471,095	4,51
471,448	4,51
471,8	4,51
472,153	4,51
472,505	4,52
472,858	4,52
473,21	4,53
473,562	4,54
473,915	4,53
474,267	4,54
474,619	4,52
474,971	4,52
475,324	4,5
475,676	4,51
476,028	4,54
476,38	4,56
476,732	4,55
477,084	4,53
477,436	4,51
477,787	4,5
478,139	4,46
478,491	4,45
478,843	4,43
479,195	4,4
479,546	4,33
479,898	4,25
480,249	4,17
480,601	4,09
480,952	4,04
481,304	4,02
481,655	4,01
482,007	4
482,358	4
482,709	3,99
483,061	3,97
483,412	3,96
483,763	3,94
484,114	3,93
484,465	3,93
484,816	3,92
485,167	3,91
485,518	3,91
485,869	3,9
486,22	3,91
486,571	3,92
486,922	3,93
487,272	3,95
487,623	3,97
487,974	4
488,324	4,02
488,675	4,02
489,025	4,02
489,376	4,02
489,726	4,03
490,077	4,04
490,427	4,06
490,778	4,08
491,128	4,1
491,478	4,13
491,828	4,16
492,179	4,18
492,529	4,2
492,879	4,21
493,229	4,22
493,579	4,22
493,929	4,22
494,279	4,23
494,629	4,25
494,979	4,27
495,328	4,3
495,678	4,34
496,028	4,38
496,378	4,41
496,727	4,43
497,077	4,45
497,426	4,45
497,776	4,44
498,125	4,43
498,475	4,42
498,824	4,43
499,174	4,42
499,523	4,42
499,872	4,43
500,221	4,45
500,571	4,46
500,92	4,45
501,269	4,46
501,618	4,46
501,967	4,47
502,316	4,48
502,665	4,47
503,014	4,46
503,363	4,47
503,711	4,47
504,06	4,47
504,409	4,45
504,758	4,45
505,106	4,44
505,455	4,44
505,803	4,43
506,152	4,41
506,5	4,41
506,849	4,41
507,197	4,4
507,546	4,4
507,894	4,41
508,242	4,41
508,59	4,4
508,939	4,38
509,287	4,37
509,635	4,37
509,983	4,38
510,331	4,39
510,679	4,39
511,027	4,39
511,375	4,39
511,723	4,4
512,07	4,42
512,418	4,43
512,766	4,45
513,114	4,47
513,461	4,49
513,809	4,5
514,156	4,49
514,504	4,49
514,851	4,47
515,199	4,43
515,546	4,4
515,893	4,4
516,241	4,41
516,588	4,42
516,935	4,43
517,282	4,43
517,63	4,44
517,977	4,45
518,324	4,46
518,671	4,46
519,018	4,45
519,365	4,44
519,711	4,45
520,058	4,45
520,405	4,44
520,752	4,43
521,099	4,42
521,445	4,42
521,792	4,43
522,138	4,44
522,485	4,44
522,832	4,46
523,178	4,47
523,524	4,46
523,871	4,44
524,217	4,41
524,563	4,37
524,91	4,31
525,256	4,26
525,602	4,23
525,948	4,2
526,294	4,2
526,64	4,19
526,986	4,17
527,332	4,16
527,678	4,17
528,024	4,17
528,37	4,17
528,716	4,18
529,061	4,17
529,407	4,15
529,753	4,15
530,098	4,14
530,444	4,13
530,789	4,13
531,135	4,13
531,48	4,13
531,826	4,15
532,171	4,17
532,516	4,19
532,862	4,21
533,207	4,23
533,552	4,23
533,897	4,24
534,242	4,25
534,587	4,26
534,932	4,26
535,277	4,27
535,622	4,28
535,967	4,28
536,312	4,3
536,657	4,32
537,001	4,33
537,346	4,33
537,691	4,32
538,035	4,32
538,38	4,31
538,724	4,3
539,069	4,3
539,413	4,3
539,758	4,29
540,102	4,3
540,446	4,29
540,791	4,28
541,135	4,29
541,479	4,29
541,823	4,29
542,167	4,29
542,512	4,29
542,856	4,27
543,2	4,27
543,543	4,26
543,887	4,26
544,231	4,27
544,575	4,29
544,919	4,32
545,262	4,34
545,606	4,36
545,95	4,37
546,293	4,37
546,637	4,36
546,98	4,37
547,324	4,37
547,667	4,4
548,011	4,4
548,354	4,4
548,697	4,4
549,04	4,39
549,384	4,38
549,727	4,36
550,07	4,36
550,413	4,36
550,756	4,36
551,099	4,37
551,442	4,36
551,785	4,35
552,128	4,34
552,47	4,34
552,813	4,34
553,156	4,33
553,499	4,33
553,841	4,32
554,184	4,31
554,526	4,28
554,869	4,25
555,211	4,25
555,554	4,23
555,896	4,21
556,238	4,17
556,581	4,13
556,923	4,1
557,265	4,08
557,607	4,07
557,949	4,05
558,291	4,02
558,633	3,99
558,975	3,97
559,317	3,95
559,659	3,92
560,001	3,87
560,343	3,84
560,685	3,81
561,026	3,79
561,368	3,79
561,71	3,78
562,051	3,75
562,393	3,72
562,734	3,69
563,076	3,68
563,417	3,68
563,759	3,69
564,1	3,68
564,441	3,66
564,782	3,63
565,124	3,59
565,465	3,57
565,806	3,55
566,147	3,53
566,488	3,5
566,829	3,5
567,17	3,49
567,511	3,47
567,851	3,45
568,192	3,41
568,533	3,38
568,874	3,37
569,214	3,38
569,555	3,36
569,895	3,34
570,236	3,31
570,576	3,29
570,917	3,26
571,257	3,25
571,598	3,23
571,938	3,21
572,278	3,19
572,618	3,18
572,959	3,17
573,299	3,15
573,639	3,14
573,979	3,13
574,319	3,11
574,659	3,12
574,999	3,1
575,339	3,08
575,678	3,07
576,018	3,04
576,358	3
576,698	2,99
577,037	2,97
577,377	2,97
577,716	2,95
578,056	2,93
578,395	2,91
578,735	2,89
579,074	2,87
579,413	2,87
579,753	2,85
580,092	2,81
580,431	2,77
580,77	2,73
581,109	2,69
581,448	2,64
581,787	2,6
582,126	2,6
582,465	2,58
582,804	2,56
583,143	2,55
583,482	2,55
583,82	2,54
584,159	2,53
584,498	2,51
584,836	2,5
585,175	2,49
585,514	2,47
585,852	2,46
586,19	2,44
586,529	2,42
586,867	2,43
587,205	2,45
587,544	2,46
587,882	2,46
588,22	2,47
588,558	2,49
588,896	2,51
589,234	2,49
589,572	2,48
589,91	2,47
590,248	2,46
590,586	2,44
590,924	2,42
591,262	2,43
591,599	2,44
591,937	2,44
592,275	2,45
592,612	2,46
592,95	2,47
593,287	2,47
593,625	2,48
593,962	2,48
594,299	2,48
594,637	2,52
594,974	2,56
595,311	2,58
595,648	2,58
595,985	2,59
596,322	2,6
596,659	2,6
596,996	2,62
597,333	2,6
597,67	2,59
598,007	2,59
598,344	2,58
598,681	2,56
599,017	2,55
599,354	2,53
599,691	2,5
600,027	2,52
600,364	2,54
600,7	2,57
601,037	2,59
601,373	2,6
601,71	2,61
602,046	2,59
602,382	2,59
602,718	2,6
603,054	2,61
603,391	2,62
603,727	2,63
604,063	2,63
604,399	2,66
604,735	2,69
605,071	2,7
605,406	2,71
605,742	2,72
606,078	2,73
606,414	2,75
606,749	2,79
607,085	2,8
607,421	2,81
607,756	2,8
608,092	2,79
608,427	2,77
608,762	2,74
609,098	2,71
609,433	2,68
609,768	2,65
610,104	2,63
610,439	2,61
610,774	2,6
611,109	2,59
611,444	2,56
611,779	2,53
612,114	2,5
612,449	2,49
612,784	2,47
613,118	2,44
613,453	2,4
613,788	2,34
614,123	2,26
614,457	2,2
614,792	2,15
615,126	2,11
615,461	2,08
615,795	2,06
616,13	2,04
616,464	2,03
616,798	2,01
617,132	1,97
617,467	1,92
617,801	1,89
618,135	1,87
618,469	1,85
618,803	1,86
619,137	1,86
619,471	1,87
619,805	1,87
620,139	1,86
620,472	1,88
620,806	1,9
621,14	1,91
621,473	1,9
621,807	1,89
622,141	1,88
622,474	1,88
622,808	1,87
623,141	1,87
623,474	1,89
623,808	1,91
624,141	1,95
624,474	2,02
624,807	2,06
625,141	2,09
625,474	2,12
625,807	2,14
626,14	2,15
626,473	2,15
626,806	2,15
627,138	2,15
627,471	2,13
627,804	2,14
628,137	2,14
628,469	2,18
628,802	2,19
629,135	2,19
629,467	2,19
629,8	2,19
630,132	2,18
630,465	2,17
630,797	2,16
631,129	2,14
631,461	2,11
631,794	2,1
632,126	2,12
632,458	2,11
632,79	2,1
633,122	2,09
633,454	2,09
633,786	2,09
634,118	2,08
634,45	2,08
634,781	2,07
635,113	2,06
635,445	2,05
635,777	2,05
636,108	2,06
636,44	2,05
636,771	2,03
637,103	2,02
637,434	1,99
637,765	1,98
638,097	1,96
638,428	1,94
638,759	1,92
639,09	1,89
639,422	1,87
639,753	1,83
640,084	1,79
640,415	1,76
640,746	1,73
641,077	1,75
641,407	1,73
641,738	1,71
642,069	1,71
642,4	1,7
642,73	1,67
643,061	1,64
643,392	1,63
643,722	1,65
644,053	1,65
644,383	1,63
644,713	1,64
645,044	1,68
645,374	1,72
645,704	1,73
646,034	1,73
646,365	1,73
646,695	1,73
647,025	1,75
647,355	1,77
647,685	1,79
648,015	1,78
648,344	1,78
648,674	1,79
649,004	1,77
649,334	1,74
649,663	1,75
649,993	1,75
650,323	1,77
650,652	1,75
650,982	1,75
651,311	1,76
651,64	1,74
651,97	1,74
652,299	1,7
652,628	1,71
652,958	1,69
653,287	1,7
653,616	1,72
653,945	1,73
654,274	1,75
654,603	1,75
654,932	1,75
655,261	1,76
655,589	1,78
655,918	1,81
656,247	1,87
656,576	1,9
656,904	1,96
657,233	1,98
657,561	2,02
657,89	2,07
658,218	2,11
658,547	2,13
658,875	2,13
659,203	2,15
659,532	2,15
659,86	2,17
660,188	2,17
660,516	2,17
660,844	2,18
661,172	2,18
661,5	2,19
661,828	2,22
662,156	2,23
662,484	2,23
662,811	2,22
663,139	2,19
663,467	2,15
