Data from zc74051_2_Reflection_00005.txt Node
Date: Thu Mar 12 15:04:20 ART 2020
User: Ana
Spectrometer: USB2E3644
Trigger mode: 4
Integration Time (sec): 5,000000E-2
Scans to average: 10
Electric dark correction enabled: true
Nonlinearity correction enabled: false
Boxcar width: 10
XAxis mode: Wavelengths
Number of Pixels in Spectrum: 2048
>>>>>Begin Spectral Data<<<<<
178,315	113,98
178,696	120,72
179,076	127,34
179,457	128,53
179,838	127,56
180,218	207,07
180,599	-319,44
180,979	121,05
181,36	227,78
181,74	139,9
182,121	118,15
182,501	107,93
182,881	105,56
183,262	106,48
183,642	108,3
184,022	108,08
184,402	106,3
184,783	104,66
185,163	104,21
185,543	105,98
185,923	106,39
186,303	108,2
186,683	111,92
187,063	113,43
187,443	113,6
187,823	111,9
188,203	110,52
188,583	109,39
188,963	107,94
189,343	106,82
189,723	106,08
190,102	105,74
190,482	105,05
190,862	104,78
191,242	104,81
191,621	105,96
192,001	107,44
192,38	107,96
192,76	108,75
193,14	109,41
193,519	109,92
193,898	109,88
194,278	109,21
194,657	107,41
195,037	106,72
195,416	106,14
195,795	106,97
196,175	108,67
196,554	108,86
196,933	109,02
197,312	109,85
197,692	110,82
198,071	111,46
198,45	112,1
198,829	112,93
199,208	113,49
199,587	113,32
199,966	113,98
200,345	115,31
200,724	115,92
201,103	116,03
201,482	115,45
201,86	114,9
202,239	114,45
202,618	114,61
202,997	115,16
203,375	115,7
203,754	115,38
204,133	115,69
204,511	116,76
204,89	117,28
205,269	116,81
205,647	116,42
206,026	116,61
206,404	117,06
206,782	116,7
207,161	115,59
207,539	114,53
207,918	113,06
208,296	111,95
208,674	111,49
209,052	111,91
209,431	112,64
209,809	113,35
210,187	113,88
210,565	114,12
210,943	113,62
211,321	113,88
211,699	114,95
212,077	115,11
212,455	115,05
212,833	114,9
213,211	114,77
213,589	114,88
213,967	115,66
214,345	115,83
214,722	116,24
215,1	117,11
215,478	118,35
215,855	119,98
216,233	120,87
216,611	121,32
216,988	120,54
217,366	119,03
217,743	118,06
218,121	116,86
218,498	116,26
218,876	116,33
219,253	115,86
219,631	113,91
220,008	112,93
220,385	112,14
220,762	111,69
221,14	111,49
221,517	111,11
221,894	110,2
222,271	109,57
222,648	109,03
223,025	107,92
223,402	107,16
223,78	106,34
224,157	105,2
224,533	105,3
224,91	106,59
225,287	107,82
225,664	108,82
226,041	110,87
226,418	113,04
226,795	113,75
227,171	114,1
227,548	115,32
227,925	115,93
228,301	116,06
228,678	115,95
229,055	116,68
229,431	117,79
229,808	118,14
230,184	118,39
230,561	119,24
230,937	120,04
231,313	120,2
231,69	120,9
232,066	123,75
232,442	125,68
232,819	126,45
233,195	127,12
233,571	128,33
233,947	128,17
234,323	127,79
234,699	128,68
235,075	130,12
235,451	132,86
235,827	135,97
236,203	139,78
236,579	144,94
236,955	149,08
237,331	153,27
237,707	160,02
238,083	169,43
238,459	180,69
238,834	198,37
239,21	222,89
239,586	250,7
239,961	273,95
240,337	291,26
240,713	304,83
241,088	321,09
241,464	335,61
241,839	354,87
242,215	387,9
242,59	478,75
242,965	852,22
243,341	-4574,73
243,716	-568,34
244,091	-327,23
244,467	-245,11
244,842	-201,3
245,217	-172,04
245,592	-157,16
245,967	-153,96
246,343	-148,62
246,718	-145,52
247,093	-148,09
247,468	-152,85
247,843	-152,03
248,218	-144,5
248,593	-131,36
248,967	-119,57
249,342	-112,62
249,717	-108,37
250,092	-105,39
250,467	-106,34
250,841	-114,82
251,216	-134,45
251,591	-166,53
251,965	-203,08
252,34	-239,75
252,714	-287,04
253,089	-346,04
253,463	-391,5
253,838	-392,78
254,212	-383,29
254,587	-350,04
254,961	-285,66
255,335	-224,86
255,71	-174,21
256,084	-127,88
256,458	-98,11
256,832	-81,22
257,206	-72,01
257,581	-67,22
257,955	-64,51
258,329	-62,08
258,703	-58,74
259,077	-55,9
259,451	-52,93
259,825	-51,64
260,199	-51,58
260,572	-50,84
260,946	-50,37
261,32	-50,01
261,694	-48,93
262,068	-48,3
262,441	-47,36
262,815	-46,68
263,189	-45,6
263,562	-45,66
263,936	-48,46
264,309	-54,11
264,683	-60,52
265,056	-64,36
265,43	-65,71
265,803	-65,02
266,176	-63,04
266,55	-61,56
266,923	-60,23
267,296	-58,55
267,67	-55,38
268,043	-52,25
268,416	-48,53
268,789	-44,94
269,162	-41,6
269,535	-39,09
269,908	-36,99
270,281	-35,88
270,654	-36,16
271,027	-37,27
271,4	-37,81
271,773	-37,69
272,146	-37,23
272,519	-36,92
272,891	-37,05
273,264	-37,09
273,637	-36,88
274,01	-37,14
274,382	-38,32
274,755	-39,01
275,127	-39,69
275,5	-40,45
275,872	-40,92
276,245	-41,8
276,617	-43,16
276,99	-44,62
277,362	-46,19
277,734	-47,21
278,107	-47,25
278,479	-46,26
278,851	-45,06
279,223	-44,55
279,596	-44,05
279,968	-43,81
280,34	-43,12
280,712	-41,98
281,084	-40,44
281,456	-39,2
281,828	-37,54
282,2	-35,01
282,572	-33,17
282,944	-31,81
283,315	-31
283,687	-30,19
284,059	-29,52
284,431	-28,95
284,802	-28,16
285,174	-27,37
285,546	-26,7
285,917	-26,04
286,289	-25,45
286,66	-24,93
287,032	-24,22
287,403	-23,94
287,775	-23,86
288,146	-24,08
288,518	-24,45
288,889	-24,62
289,26	-24,68
289,632	-25,15
290,003	-25,9
290,374	-26,22
290,745	-26,46
291,116	-26,41
291,487	-26,37
291,858	-26,16
292,229	-25,87
292,6	-25,51
292,971	-24,92
293,342	-24,1
293,713	-23,21
294,084	-22,28
294,455	-21,38
294,826	-20,99
295,196	-20,81
295,567	-20,75
295,938	-20,26
296,308	-19,68
296,679	-19,31
297,05	-19,02
297,42	-18,53
297,791	-17,9
298,161	-17,54
298,532	-17,02
298,902	-16,64
299,272	-16,36
299,643	-16,22
300,013	-15,89
300,383	-15,69
300,754	-15,75
301,124	-16,08
301,494	-16,56
301,864	-17,06
302,234	-17,48
302,604	-17,56
302,974	-17,4
303,344	-16,94
303,714	-16,51
304,084	-16,05
304,454	-15,78
304,824	-15,62
305,194	-15,54
305,563	-15,63
305,933	-15,52
306,303	-15,22
306,673	-14,74
307,042	-14,21
307,412	-13,55
307,781	-12,88
308,151	-12,47
308,521	-12,16
308,89	-11,75
309,259	-11,58
309,629	-11,49
309,998	-11,38
310,368	-11,27
310,737	-11,06
311,106	-10,92
311,475	-10,91
311,845	-11,05
312,214	-11,04
312,583	-11,02
312,952	-11,07
313,321	-10,96
313,69	-10,64
314,059	-10,65
314,428	-10,94
314,797	-11,32
315,166	-11,83
315,535	-12,48
315,904	-12,97
316,272	-13,16
316,641	-13,37
317,01	-13,24
317,379	-13,09
317,747	-12,85
318,116	-12,56
318,484	-12,42
318,853	-12,35
319,221	-12,26
319,59	-12,2
319,958	-12,06
320,327	-11,92
320,695	-11,73
321,063	-11,55
321,432	-11,5
321,8	-11,26
322,168	-10,99
322,536	-10,75
322,905	-10,25
323,273	-9,72
323,641	-9,26
324,009	-9,04
324,377	-8,97
324,745	-8,78
325,113	-8,46
325,481	-8,19
325,849	-7,99
326,216	-7,77
326,584	-7,64
326,952	-7,56
327,32	-7,35
327,687	-7,19
328,055	-6,92
328,423	-6,64
328,79	-6,56
329,158	-6,58
329,525	-6,63
329,893	-6,5
330,26	-6,29
330,628	-6,23
330,995	-6,17
331,362	-6,12
331,73	-6,01
332,097	-5,74
332,464	-5,55
332,831	-5,39
333,199	-5,32
333,566	-5,22
333,933	-5
334,3	-4,68
334,667	-4,4
335,034	-4,22
335,401	-4,04
335,768	-3,9
336,135	-3,83
336,502	-3,71
336,868	-3,46
337,235	-3,18
337,602	-2,96
337,969	-2,75
338,335	-2,55
338,702	-2,32
339,069	-2,15
339,435	-2,03
339,802	-1,88
340,168	-1,79
340,535	-1,64
340,901	-1,58
341,267	-1,51
341,634	-1,47
342	-1,45
342,366	-1,36
342,733	-1,28
343,099	-1,19
343,465	-1,15
343,831	-1,06
344,197	-0,91
344,563	-0,87
344,929	-0,88
345,295	-0,8
345,661	-0,7
346,027	-0,62
346,393	-0,56
346,759	-0,41
347,125	-0,3
347,491	-0,2
347,856	-0,1
348,222	-0,1
348,588	0,03
348,953	0,13
349,319	0,16
349,684	0,28
350,05	0,34
350,415	0,41
350,781	0,44
351,146	0,56
351,512	0,7
351,877	0,77
352,242	0,82
352,608	0,92
352,973	1,05
353,338	1,19
353,703	1,31
354,068	1,37
354,433	1,42
354,798	1,49
355,164	1,56
355,528	1,63
355,893	1,72
356,258	1,75
356,623	1,83
356,988	1,97
357,353	2,04
357,718	2,13
358,082	2,2
358,447	2,3
358,812	2,42
359,176	2,52
359,541	2,62
359,905	2,74
360,27	2,85
360,634	2,91
360,999	2,99
361,363	3,06
361,728	3,13
362,092	3,18
362,456	3,21
362,821	3,27
363,185	3,35
363,549	3,44
363,913	3,53
364,277	3,62
364,641	3,67
365,005	3,77
365,369	3,81
365,733	3,92
366,097	4,01
366,461	4,06
366,825	4,12
367,189	4,19
367,553	4,27
367,916	4,4
368,28	4,5
368,644	4,53
369,007	4,6
369,371	4,72
369,734	4,89
370,098	5,08
370,461	5,26
370,825	5,36
371,188	5,47
371,552	5,57
371,915	5,64
372,278	5,77
372,642	5,89
373,005	6,05
373,368	6,2
373,731	6,31
374,094	6,41
374,457	6,52
374,82	6,69
375,183	6,81
375,546	6,89
375,909	6,93
376,272	7,04
376,635	7,15
376,998	7,24
377,361	7,29
377,723	7,36
378,086	7,4
378,449	7,46
378,811	7,52
379,174	7,6
379,537	7,68
379,899	7,74
380,262	7,79
380,624	7,84
380,987	7,9
381,349	8,01
381,711	8,09
382,074	8,18
382,436	8,25
382,798	8,36
383,16	8,41
383,522	8,49
383,884	8,57
384,247	8,61
384,609	8,69
384,971	8,77
385,333	8,79
385,695	8,82
386,056	8,87
386,418	8,87
386,78	8,88
387,142	8,91
387,504	8,91
387,865	8,95
388,227	8,95
388,589	8,95
388,95	8,99
389,312	8,98
389,673	8,99
390,035	8,97
390,396	8,98
390,758	9,01
391,119	9,04
391,48	9,08
391,842	9,12
392,203	9,13
392,564	9,13
392,925	9,17
393,286	9,2
393,648	9,22
394,009	9,28
394,37	9,32
394,731	9,39
395,092	9,44
395,452	9,47
395,813	9,52
396,174	9,56
396,535	9,55
396,896	9,6
397,257	9,67
397,617	9,75
397,978	9,75
398,338	9,8
398,699	9,87
399,06	9,93
399,42	9,95
399,781	9,97
400,141	9,97
400,501	9,96
400,862	9,96
401,222	9,98
401,582	10
401,943	10,03
402,303	10,01
402,663	10,03
403,023	10,02
403,383	10,05
403,743	10,07
404,103	10,1
404,463	10,1
404,823	10,09
405,183	10,07
405,543	10,11
405,903	10,1
406,262	10,08
406,622	10,05
406,982	10,05
407,342	10,07
407,701	10,12
408,061	10,16
408,42	10,2
408,78	10,22
409,139	10,21
409,499	10,22
409,858	10,24
410,217	10,29
410,577	10,32
410,936	10,31
411,295	10,3
411,655	10,28
412,014	10,27
412,373	10,25
412,732	10,22
413,091	10,19
413,45	10,15
413,809	10,09
414,168	10,03
414,527	9,98
414,886	9,92
415,245	9,87
415,603	9,83
415,962	9,8
416,321	9,77
416,679	9,75
417,038	9,71
417,397	9,67
417,755	9,62
418,114	9,61
418,472	9,6
418,831	9,6
419,189	9,59
419,547	9,58
419,906	9,58
420,264	9,58
420,622	9,58
420,981	9,59
421,339	9,61
421,697	9,63
422,055	9,65
422,413	9,68
422,771	9,7
423,129	9,72
423,487	9,74
423,845	9,76
424,203	9,78
424,56	9,83
424,918	9,88
425,276	9,92
425,634	9,94
425,991	9,97
426,349	10,01
426,707	10,07
427,064	10,12
427,422	10,14
427,779	10,18
428,137	10,24
428,494	10,27
428,851	10,3
429,209	10,3
429,566	10,28
429,923	10,26
430,28	10,25
430,637	10,26
430,995	10,27
431,352	10,28
431,709	10,29
432,066	10,3
432,423	10,32
432,78	10,31
433,137	10,33
433,493	10,33
433,85	10,37
434,207	10,31
434,564	10,3
434,92	10,31
435,277	10,3
435,634	10,28
435,99	10,27
436,347	10,27
436,703	10,28
437,06	10,28
437,416	10,29
437,773	10,3
438,129	10,28
438,485	10,28
438,841	10,24
439,198	10,25
439,554	10,23
439,91	10,22
440,266	10,22
440,622	10,22
440,978	10,22
441,334	10,16
441,69	10,17
442,046	10,15
442,402	10,13
442,758	10,13
443,113	10,13
443,469	10,13
443,825	10,11
444,181	10,13
444,536	10,15
444,892	10,16
445,247	10,18
445,603	10,19
445,958	10,2
446,314	10,23
446,669	10,24
447,025	10,26
447,38	10,28
447,735	10,29
448,09	10,3
448,446	10,31
448,801	10,34
449,156	10,37
449,511	10,4
449,866	10,46
450,221	10,49
450,576	10,54
450,931	10,59
451,286	10,64
451,641	10,66
451,995	10,7
452,35	10,74
452,705	10,75
453,06	10,76
453,414	10,79
453,769	10,81
454,123	10,8
454,478	10,78
454,832	10,78
455,187	10,77
455,541	10,74
455,896	10,71
456,25	10,68
456,604	10,65
456,958	10,63
457,313	10,61
457,667	10,6
458,021	10,59
458,375	10,61
458,729	10,63
459,083	10,64
459,437	10,65
459,791	10,65
460,145	10,66
460,499	10,65
460,852	10,64
461,206	10,64
461,56	10,65
461,914	10,66
462,267	10,66
462,621	10,68
462,974	10,7
463,328	10,72
463,681	10,76
464,035	10,79
464,388	10,82
464,742	10,84
465,095	10,84
465,448	10,86
465,801	10,85
466,155	10,83
466,508	10,82
466,861	10,79
467,214	10,78
467,567	10,77
467,92	10,8
468,273	10,8
468,626	10,79
468,979	10,78
469,332	10,78
469,684	10,77
470,037	10,79
470,39	10,79
470,743	10,8
471,095	10,82
471,448	10,82
471,8	10,84
472,153	10,84
472,505	10,87
472,858	10,86
473,21	10,87
473,562	10,89
473,915	10,9
474,267	10,93
474,619	10,93
474,971	10,92
475,324	10,9
475,676	10,92
476,028	10,92
476,38	10,93
476,732	10,95
477,084	10,96
477,436	10,94
477,787	10,93
478,139	10,93
478,491	10,92
478,843	10,91
479,195	10,89
479,546	10,85
479,898	10,79
480,249	10,72
480,601	10,69
480,952	10,64
481,304	10,63
481,655	10,63
482,007	10,61
482,358	10,61
482,709	10,6
483,061	10,58
483,412	10,57
483,763	10,57
484,114	10,57
484,465	10,56
484,816	10,55
485,167	10,56
485,518	10,56
485,869	10,56
486,22	10,57
486,571	10,57
486,922	10,59
487,272	10,61
487,623	10,63
487,974	10,64
488,324	10,65
488,675	10,65
489,025	10,65
489,376	10,66
489,726	10,67
490,077	10,7
490,427	10,72
490,778	10,74
491,128	10,74
491,478	10,75
491,828	10,78
492,179	10,79
492,529	10,81
492,879	10,82
493,229	10,84
493,579	10,85
493,929	10,86
494,279	10,88
494,629	10,89
494,979	10,91
495,328	10,95
495,678	11
496,028	11,04
496,378	11,08
496,727	11,11
497,077	11,14
497,426	11,14
497,776	11,12
498,125	11,12
498,475	11,14
498,824	11,15
499,174	11,16
499,523	11,19
499,872	11,2
500,221	11,22
500,571	11,21
500,92	11,21
501,269	11,23
501,618	11,23
501,967	11,22
502,316	11,25
502,665	11,24
503,014	11,26
503,363	11,26
503,711	11,25
504,06	11,24
504,409	11,23
504,758	11,22
505,106	11,24
505,455	11,24
505,803	11,24
506,152	11,24
506,5	11,23
506,849	11,22
507,197	11,23
507,546	11,22
507,894	11,24
508,242	11,23
508,59	11,23
508,939	11,22
509,287	11,23
509,635	11,2
509,983	11,22
510,331	11,22
510,679	11,23
511,027	11,23
511,375	11,24
511,723	11,26
512,07	11,28
512,418	11,3
512,766	11,31
513,114	11,34
513,461	11,34
513,809	11,34
514,156	11,34
514,504	11,32
514,851	11,33
515,199	11,3
515,546	11,29
515,893	11,28
516,241	11,31
516,588	11,31
516,935	11,32
517,282	11,33
517,63	11,34
517,977	11,35
518,324	11,36
518,671	11,37
519,018	11,38
519,365	11,37
519,711	11,36
520,058	11,37
520,405	11,36
520,752	11,38
521,099	11,39
521,445	11,42
521,792	11,42
522,138	11,42
522,485	11,42
522,832	11,44
523,178	11,45
523,524	11,44
523,871	11,45
524,217	11,45
524,563	11,4
524,91	11,33
525,256	11,27
525,602	11,24
525,948	11,24
526,294	11,23
526,64	11,22
526,986	11,22
527,332	11,21
527,678	11,21
528,024	11,21
528,37	11,22
528,716	11,2
529,061	11,21
529,407	11,2
529,753	11,2
530,098	11,21
530,444	11,22
530,789	11,2
531,135	11,21
531,48	11,21
531,826	11,22
532,171	11,26
532,516	11,29
532,862	11,31
533,207	11,32
533,552	11,3
533,897	11,34
534,242	11,35
534,587	11,35
534,932	11,37
535,277	11,37
535,622	11,37
535,967	11,39
536,312	11,41
536,657	11,43
537,001	11,45
537,346	11,45
537,691	11,44
538,035	11,45
538,38	11,41
538,724	11,41
539,069	11,43
539,413	11,43
539,758	11,43
540,102	11,43
540,446	11,42
540,791	11,44
541,135	11,44
541,479	11,44
541,823	11,44
542,167	11,43
542,512	11,44
542,856	11,44
543,2	11,42
543,543	11,42
543,887	11,42
544,231	11,43
544,575	11,43
544,919	11,46
545,262	11,47
545,606	11,5
545,95	11,52
546,293	11,53
546,637	11,54
546,98	11,57
547,324	11,57
547,667	11,62
548,011	11,63
548,354	11,64
548,697	11,64
549,04	11,63
549,384	11,61
549,727	11,59
550,07	11,59
550,413	11,6
550,756	11,57
551,099	11,55
551,442	11,54
551,785	11,56
552,128	11,55
552,47	11,55
552,813	11,53
553,156	11,52
553,499	11,51
553,841	11,48
554,184	11,49
554,526	11,48
554,869	11,46
555,211	11,46
555,554	11,45
555,896	11,43
556,238	11,41
556,581	11,41
556,923	11,39
557,265	11,38
557,607	11,35
557,949	11,36
558,291	11,35
558,633	11,34
558,975	11,32
559,317	11,3
559,659	11,3
560,001	11,29
560,343	11,29
560,685	11,26
561,026	11,24
561,368	11,2
561,71	11,15
562,051	11,09
562,393	11,08
562,734	11,05
563,076	11,06
563,417	11,07
563,759	11,07
564,1	11,08
564,441	11,07
564,782	11,05
565,124	11,02
565,465	11,02
565,806	11
566,147	10,99
566,488	10,95
566,829	10,93
567,17	10,92
567,511	10,88
567,851	10,87
568,192	10,86
568,533	10,86
568,874	10,87
569,214	10,89
569,555	10,85
569,895	10,83
570,236	10,78
570,576	10,72
570,917	10,69
571,257	10,65
571,598	10,64
571,938	10,65
572,278	10,66
572,618	10,64
572,959	10,65
573,299	10,65
573,639	10,67
573,979	10,66
574,319	10,65
574,659	10,65
574,999	10,63
575,339	10,61
575,678	10,58
576,018	10,57
576,358	10,55
576,698	10,53
577,037	10,53
577,377	10,54
577,716	10,56
578,056	10,55
578,395	10,51
578,735	10,5
579,074	10,47
579,413	10,44
579,753	10,42
580,092	10,39
580,431	10,32
580,77	10,29
581,109	10,24
581,448	10,22
581,787	10,19
582,126	10,18
582,465	10,17
582,804	10,16
583,143	10,14
583,482	10,09
583,82	10,09
584,159	10,08
584,498	10,06
584,836	10,04
585,175	10,03
585,514	10,06
585,852	10,04
586,19	10,05
586,529	10,04
586,867	10,04
587,205	10,07
587,544	10,1
587,882	10,11
588,22	10,13
588,558	10,15
588,896	10,17
589,234	10,17
589,572	10,2
589,91	10,19
590,248	10,19
590,586	10,18
590,924	10,18
591,262	10,19
591,599	10,2
591,937	10,21
592,275	10,19
592,612	10,21
592,95	10,22
593,287	10,26
593,625	10,29
593,962	10,31
594,299	10,33
594,637	10,33
594,974	10,32
595,311	10,33
595,648	10,35
595,985	10,36
596,322	10,37
596,659	10,36
596,996	10,37
597,333	10,35
597,67	10,36
598,007	10,36
598,344	10,35
598,681	10,37
599,017	10,36
599,354	10,37
599,691	10,36
600,027	10,37
600,364	10,36
600,7	10,36
601,037	10,36
601,373	10,35
601,71	10,35
602,046	10,37
602,382	10,39
602,718	10,39
603,054	10,39
603,391	10,4
603,727	10,39
604,063	10,39
604,399	10,41
604,735	10,42
605,071	10,41
605,406	10,42
605,742	10,42
606,078	10,46
606,414	10,48
606,749	10,48
607,085	10,49
607,421	10,48
607,756	10,47
608,092	10,46
608,427	10,46
608,762	10,45
609,098	10,45
609,433	10,41
609,768	10,36
610,104	10,34
610,439	10,31
610,774	10,29
611,109	10,26
611,444	10,25
611,779	10,24
612,114	10,22
612,449	10,21
612,784	10,18
613,118	10,13
613,453	10,09
613,788	10,06
614,123	10,01
614,457	9,99
614,792	9,94
615,126	9,93
615,461	9,91
615,795	9,9
616,13	9,85
616,464	9,86
616,798	9,88
617,132	9,89
617,467	9,87
617,801	9,87
618,135	9,87
618,469	9,87
618,803	9,89
619,137	9,9
619,471	9,92
619,805	9,92
620,139	9,92
620,472	9,95
620,806	9,98
621,14	9,99
621,473	9,98
621,807	9,97
622,141	9,98
622,474	9,97
622,808	9,97
623,141	9,99
623,474	10
623,808	10,02
624,141	10
624,474	10,06
624,807	10,1
625,141	10,14
625,474	10,16
625,807	10,17
626,14	10,19
626,473	10,2
626,806	10,19
627,138	10,19
627,471	10,17
627,804	10,15
628,137	10,18
628,469	10,19
628,802	10,19
629,135	10,16
629,467	10,16
629,8	10,15
630,132	10,13
630,465	10,1
630,797	10,07
631,129	10,11
631,461	10,11
631,794	10,12
632,126	10,12
632,458	10,15
632,79	10,18
633,122	10,18
633,454	10,15
633,786	10,16
634,118	10,14
634,45	10,15
634,781	10,16
635,113	10,15
635,445	10,15
635,777	10,2
636,108	10,22
636,44	10,21
636,771	10,23
637,103	10,22
637,434	10,21
637,765	10,21
638,097	10,19
638,428	10,16
638,759	10,13
639,09	10,08
639,422	10,01
639,753	9,97
640,084	9,96
640,415	9,96
640,746	9,96
641,077	9,99
641,407	9,99
641,738	10
642,069	9,99
642,4	9,99
642,73	9,97
643,061	9,97
643,392	9,96
643,722	9,99
644,053	10,03
644,383	10,03
644,713	10,04
645,044	10,05
645,374	10,07
645,704	10,09
646,034	10,09
646,365	10,09
646,695	10,06
