Data from zc74010_4_Reflection_00005.txt Node
Date: Thu Mar 12 15:01:30 ART 2020
User: Ana
Spectrometer: USB2E3644
Trigger mode: 4
Integration Time (sec): 5,000000E-2
Scans to average: 10
Electric dark correction enabled: true
Nonlinearity correction enabled: false
Boxcar width: 10
XAxis mode: Wavelengths
Number of Pixels in Spectrum: 2048
>>>>>Begin Spectral Data<<<<<
178,315	82,85
178,696	86,05
179,076	93,33
179,457	87,65
179,838	97,14
180,218	137,78
180,599	833,33
180,979	45,16
181,36	308,33
181,74	170,37
182,121	132,5
182,501	109,87
182,881	104,28
183,262	96,46
183,642	93,1
184,022	91,55
184,402	90,16
184,783	89,82
185,163	88,11
185,543	90,75
185,923	94,16
186,303	96,5
186,683	98,19
187,063	103,85
187,443	109,5
187,823	113,47
188,203	115,02
188,583	116,41
188,963	114,67
189,343	112,5
189,723	112,67
190,102	115,78
190,482	120,11
190,862	122,05
191,242	124,3
191,621	125,36
192,001	126,46
192,38	126,72
192,76	126,62
193,14	127,2
193,519	126,75
193,898	126,46
194,278	127,4
194,657	128,31
195,037	125,63
195,416	120,3
195,795	118,27
196,175	118,29
196,554	117,83
196,933	117,35
197,312	117,73
197,692	117,75
198,071	117,27
198,45	117,41
198,829	118,61
199,208	120
199,587	119,98
199,966	119,41
200,345	118,77
200,724	118,49
201,103	118,22
201,482	118,06
201,86	117,63
202,239	115,52
202,618	114,4
202,997	114,91
203,375	116,65
203,754	117,53
204,133	118,39
204,511	119,01
204,89	119,18
205,269	119,52
205,647	119,82
206,026	119,58
206,404	120
206,782	119,92
207,161	119,84
207,539	120,12
207,918	121,34
208,296	123,78
208,674	125,4
209,052	127,28
209,431	129,58
209,809	131,12
210,187	133,23
210,565	134,37
210,943	134,98
211,321	135,23
211,699	136,5
212,077	137,18
212,455	136,81
212,833	137,58
213,211	137,31
213,589	137,79
213,967	138,23
214,345	137,68
214,722	137,93
215,1	137,17
215,478	136,25
215,855	136,17
216,233	135,49
216,611	135,15
216,988	133,41
217,366	130,5
217,743	129,42
218,121	129,8
218,498	130,72
218,876	130,18
219,253	128,29
219,631	125,85
220,008	123,82
220,385	123,73
220,762	123,26
221,14	122,58
221,517	121,53
221,894	120,86
222,271	119,98
222,648	118,7
223,025	118,2
223,402	118,63
223,78	119
224,157	119,15
224,533	119,19
224,91	120,99
225,287	124,25
225,664	126,95
226,041	128
226,418	127,98
226,795	128,71
227,171	130,42
227,548	132,66
227,925	134,55
228,301	136,32
228,678	138,91
229,055	141,37
229,431	143,41
229,808	145,45
230,184	147,14
230,561	149,7
230,937	152,92
231,313	154,94
231,69	155,56
232,066	157,36
232,442	159,55
232,819	160,07
233,195	159,33
233,571	159,07
233,947	160,7
234,323	162,58
234,699	163,31
235,075	163,74
235,451	165,02
235,827	167,01
236,203	168,13
236,579	169,41
236,955	173,92
237,331	182,16
237,707	193,91
238,083	207,99
238,459	224,23
238,834	251,25
239,21	295,66
239,586	354,85
239,961	419,74
240,337	489,23
240,713	553,71
241,088	627,86
241,464	722,86
241,839	853,33
242,215	1136,84
242,59	2685,71
242,965	-1663,75
243,341	-473,5
243,716	-256,05
244,091	-182,97
244,467	-150,62
244,842	-131,14
245,217	-117,96
245,592	-110,66
245,967	-109,06
246,343	-106,22
246,718	-104,55
247,093	-107,41
247,468	-111,13
247,843	-111,36
248,218	-107,59
248,593	-100,08
248,967	-91,74
249,342	-86,8
249,717	-83,37
250,092	-81,63
250,467	-82
250,841	-86,6
251,216	-99,12
251,591	-119,94
251,965	-143,69
252,34	-162,75
252,714	-184,06
253,089	-200
253,463	-210,41
253,838	-209,09
254,212	-204,02
254,587	-193,17
254,961	-170,75
255,335	-145,31
255,71	-119,96
256,084	-92,59
256,458	-72,99
256,832	-61,55
257,206	-55,14
257,581	-52,18
257,955	-50,22
258,329	-48,16
258,703	-45,86
259,077	-43,86
259,451	-41,88
259,825	-41,03
260,199	-40,83
260,572	-39,98
260,946	-39,84
261,32	-39,62
261,694	-38,88
262,068	-38,42
262,441	-37,99
262,815	-37,56
263,189	-36,81
263,562	-37,1
263,936	-39,45
264,309	-43,55
264,683	-48,14
265,056	-50,8
265,43	-51,92
265,803	-52,35
266,176	-52,37
266,55	-52,64
266,923	-52,15
267,296	-51,25
267,67	-49,28
268,043	-47,32
268,416	-44,78
268,789	-42
269,162	-39,29
269,535	-37,03
269,908	-35,09
270,281	-33,99
270,654	-33,72
271,027	-34
271,4	-34,11
271,773	-34,07
272,146	-33,95
272,519	-33,94
272,891	-33,91
273,264	-33,76
273,637	-33,3
274,01	-33,01
274,382	-33,13
274,755	-33,24
275,127	-33,44
275,5	-33,71
275,872	-33,65
276,245	-33,77
276,617	-34,51
276,99	-35,2
277,362	-36,16
277,734	-36,83
278,107	-36,72
278,479	-36,46
278,851	-36,1
279,223	-35,49
279,596	-34,89
279,968	-34,78
280,34	-34,27
280,712	-33,61
281,084	-32,41
281,456	-30,98
281,828	-29,27
282,2	-27,01
282,572	-25,22
282,944	-23,81
283,315	-22,87
283,687	-22,2
284,059	-21,95
284,431	-21,59
284,802	-20,93
285,174	-20,26
285,546	-19,78
285,917	-19,18
286,289	-18,64
286,66	-18,27
287,032	-17,96
287,403	-17,75
287,775	-17,52
288,146	-17,5
288,518	-17,49
288,889	-17,26
289,26	-17,24
289,632	-17,67
290,003	-18,32
290,374	-18,66
290,745	-18,95
291,116	-19
291,487	-19,05
291,858	-18,81
292,229	-18,38
292,6	-18,01
292,971	-17,33
293,342	-16,43
293,713	-15,59
294,084	-14,87
294,455	-13,93
294,826	-13,13
295,196	-12,71
295,567	-12,63
295,938	-12,22
296,308	-11,84
296,679	-11,62
297,05	-11,29
297,42	-10,77
297,791	-10,19
298,161	-9,93
298,532	-9,54
298,902	-9,14
299,272	-8,73
299,643	-8,37
300,013	-7,94
300,383	-7,72
300,754	-7,65
301,124	-7,76
301,494	-7,91
301,864	-8,03
302,234	-8,33
302,604	-8,56
302,974	-8,5
303,344	-8,01
303,714	-7,53
304,084	-7,15
304,454	-7
304,824	-6,93
305,194	-6,9
305,563	-6,85
305,933	-6,55
306,303	-6,19
306,673	-5,82
307,042	-5,42
307,412	-4,87
307,781	-4,3
308,151	-3,84
308,521	-3,55
308,89	-3,23
309,259	-3,11
309,629	-2,99
309,998	-2,87
310,368	-2,8
310,737	-2,65
311,106	-2,53
311,475	-2,43
311,845	-2,4
312,214	-2,25
312,583	-2,06
312,952	-2,03
313,321	-1,96
313,69	-1,69
314,059	-1,53
314,428	-1,54
314,797	-1,63
315,166	-1,89
315,535	-2,21
315,904	-2,54
316,272	-2,72
316,641	-2,89
317,01	-2,76
317,379	-2,49
317,747	-2,15
318,116	-1,7
318,484	-1,39
318,853	-1,15
319,221	-0,98
319,59	-0,82
319,958	-0,53
320,327	-0,3
320,695	0,08
321,063	0,58
321,432	0,92
321,8	1,31
322,168	1,64
322,536	1,83
322,905	2,14
323,273	2,5
323,641	2,96
324,009	3,41
324,377	3,72
324,745	4,05
325,113	4,42
325,481	4,8
325,849	5,03
326,216	5,34
326,584	5,63
326,952	5,89
327,32	6,18
327,687	6,42
328,055	6,74
328,423	6,96
328,79	6,93
329,158	6,88
329,525	6,78
329,893	6,85
330,26	7,15
330,628	7,49
330,995	7,75
331,362	7,96
331,73	8,11
332,097	8,36
332,464	8,59
332,831	8,77
333,199	8,82
333,566	8,99
333,933	9,16
334,3	9,35
334,667	9,51
335,034	9,68
335,401	9,84
335,768	9,98
336,135	10,12
336,502	10,37
336,868	10,6
337,235	10,82
337,602	10,98
337,969	11,18
338,335	11,3
338,702	11,52
339,069	11,71
339,435	11,85
339,802	12,02
340,168	12,19
340,535	12,24
340,901	12,26
341,267	12,25
341,634	12,36
342	12,53
342,366	12,72
342,733	12,89
343,099	13,08
343,465	13,25
343,831	13,4
344,197	13,63
344,563	13,79
344,929	13,96
345,295	14,24
345,661	14,41
346,027	14,52
346,393	14,56
346,759	14,63
347,125	14,74
347,491	14,77
347,856	14,77
348,222	14,82
348,588	14,98
348,953	15,15
349,319	15,16
349,684	15,22
350,05	15,31
350,415	15,44
350,781	15,52
351,146	15,56
351,512	15,63
351,877	15,63
352,242	15,7
352,608	15,8
352,973	15,84
353,338	15,94
353,703	16,11
354,068	16,22
354,433	16,32
354,798	16,46
355,164	16,66
355,528	16,8
355,893	16,99
356,258	17,1
356,623	17,27
356,988	17,47
357,353	17,58
357,718	17,7
358,082	17,75
358,447	17,84
358,812	18,01
359,176	18,18
359,541	18,34
359,905	18,44
360,27	18,53
360,634	18,61
360,999	18,72
361,363	18,83
361,728	18,98
362,092	19,08
362,456	19,1
362,821	19,17
363,185	19,28
363,549	19,36
363,913	19,44
364,277	19,45
364,641	19,48
365,005	19,59
365,369	19,67
365,733	19,74
366,097	19,86
366,461	19,96
366,825	20,09
367,189	20,15
367,553	20,25
367,916	20,37
368,28	20,45
368,644	20,52
369,007	20,54
369,371	20,65
369,734	20,8
370,098	20,95
370,461	21,06
370,825	21,11
371,188	21,2
371,552	21,4
371,915	21,55
372,278	21,72
372,642	21,78
373,005	21,87
373,368	22
373,731	22,12
374,094	22,26
374,457	22,34
374,82	22,48
375,183	22,6
375,546	22,69
375,909	22,86
376,272	23,01
376,635	23,18
376,998	23,25
377,361	23,3
377,723	23,4
378,086	23,5
378,449	23,59
378,811	23,73
379,174	23,78
379,537	23,82
379,899	23,87
380,262	23,96
380,624	24,01
380,987	24,11
381,349	24,21
381,711	24,26
382,074	24,31
382,436	24,38
382,798	24,54
383,16	24,61
383,522	24,65
383,884	24,66
384,247	24,74
384,609	24,82
384,971	24,87
385,333	24,88
385,695	24,88
386,056	24,98
386,418	24,97
386,78	24,99
387,142	25,04
387,504	25,06
387,865	25,14
388,227	25,17
388,589	25,23
388,95	25,2
389,312	25,21
389,673	25,26
390,035	25,29
390,396	25,3
390,758	25,32
391,119	25,35
391,48	25,37
391,842	25,38
392,203	25,36
392,564	25,4
392,925	25,46
393,286	25,54
393,648	25,57
394,009	25,64
394,37	25,72
394,731	25,79
395,092	25,85
395,452	25,88
395,813	25,95
396,174	25,93
396,535	25,96
396,896	25,95
397,257	26,01
397,617	26,06
397,978	26,06
398,338	26,1
398,699	26,15
399,06	26,3
399,42	26,34
399,781	26,38
400,141	26,43
400,501	26,49
400,862	26,54
401,222	26,54
401,582	26,54
401,943	26,54
402,303	26,53
402,663	26,55
403,023	26,53
403,383	26,58
403,743	26,66
404,103	26,72
404,463	26,77
404,823	26,76
405,183	26,79
405,543	26,83
405,903	26,87
406,262	26,87
406,622	26,83
406,982	26,82
407,342	26,9
407,701	26,92
408,061	26,91
408,42	26,89
408,78	26,95
409,139	27
409,499	27,03
409,858	27,08
410,217	27,15
410,577	27,19
410,936	27,19
411,295	27,2
411,655	27,2
412,014	27,22
412,373	27,25
412,732	27,25
413,091	27,21
413,45	27,25
413,809	27,31
414,168	27,27
414,527	27,27
414,886	27,26
415,245	27,25
415,603	27,26
415,962	27,26
416,321	27,24
416,679	27,22
417,038	27,21
417,397	27,17
417,755	27,13
418,114	27,15
418,472	27,14
418,831	27,15
419,189	27,17
419,547	27,19
419,906	27,19
420,264	27,15
420,622	27,17
420,981	27,17
421,339	27,14
421,697	27,16
422,055	27,19
422,413	27,2
422,771	27,22
423,129	27,24
423,487	27,26
423,845	27,3
424,203	27,32
424,56	27,35
424,918	27,41
425,276	27,48
425,634	27,52
425,991	27,58
426,349	27,63
426,707	27,63
427,064	27,67
427,422	27,7
427,779	27,82
428,137	27,83
428,494	27,91
428,851	27,98
429,209	28,03
429,566	28,04
429,923	28,06
430,28	28,06
430,637	28,08
430,995	28,06
431,352	28,08
431,709	28,1
432,066	28,12
432,423	28,14
432,78	28,15
433,137	28,14
433,493	28,14
433,85	28,19
434,207	28,22
434,564	28,22
434,92	28,24
435,277	28,26
435,634	28,29
435,99	28,26
436,347	28,25
436,703	28,29
437,06	28,31
437,416	28,36
437,773	28,39
438,129	28,38
438,485	28,42
438,841	28,43
439,198	28,45
439,554	28,45
439,91	28,47
440,266	28,48
440,622	28,51
440,978	28,52
441,334	28,49
441,69	28,5
442,046	28,51
442,402	28,5
442,758	28,49
443,113	28,49
443,469	28,5
443,825	28,53
444,181	28,52
444,536	28,55
444,892	28,53
445,247	28,55
445,603	28,59
445,958	28,64
446,314	28,65
446,669	28,64
447,025	28,66
447,38	28,66
447,735	28,67
448,09	28,68
448,446	28,67
448,801	28,68
449,156	28,7
449,511	28,72
449,866	28,78
450,221	28,83
450,576	28,91
450,931	28,99
451,286	29,04
451,641	29,11
451,995	29,13
452,35	29,19
452,705	29,22
453,06	29,2
453,414	29,18
453,769	29,2
454,123	29,23
454,478	29,23
454,832	29,25
455,187	29,21
455,541	29,21
455,896	29,25
456,25	29,27
456,604	29,28
456,958	29,27
457,313	29,25
457,667	29,25
458,021	29,22
458,375	29,22
458,729	29,25
459,083	29,26
459,437	29,26
459,791	29,27
460,145	29,28
460,499	29,32
460,852	29,31
461,206	29,33
461,56	29,35
461,914	29,38
462,267	29,41
462,621	29,46
462,974	29,51
463,328	29,53
463,681	29,54
464,035	29,57
464,388	29,59
464,742	29,64
465,095	29,65
465,448	29,69
465,801	29,69
466,155	29,7
466,508	29,71
466,861	29,72
467,214	29,71
467,567	29,73
467,92	29,7
468,273	29,73
468,626	29,73
468,979	29,71
469,332	29,71
469,684	29,69
470,037	29,68
470,39	29,66
470,743	29,69
471,095	29,71
471,448	29,73
471,8	29,78
472,153	29,79
472,505	29,82
472,858	29,81
473,21	29,84
473,562	29,84
473,915	29,84
474,267	29,85
474,619	29,87
474,971	29,86
475,324	29,88
475,676	29,9
476,028	29,91
476,38	29,92
476,732	29,91
477,084	29,92
477,436	29,93
477,787	29,93
478,139	29,93
478,491	29,95
478,843	29,94
479,195	29,93
479,546	29,91
479,898	29,93
480,249	30
480,601	30,08
480,952	30,11
481,304	30,14
481,655	30,14
482,007	30,13
482,358	30,12
482,709	30,12
483,061	30,11
483,412	30,11
483,763	30,11
484,114	30,1
484,465	30,1
484,816	30,1
485,167	30,11
485,518	30,11
485,869	30,11
486,22	30,12
486,571	30,12
486,922	30,13
487,272	30,11
487,623	30,09
487,974	30,04
488,324	30,01
488,675	29,98
489,025	29,97
489,376	29,99
489,726	30
490,077	30,01
490,427	30,02
490,778	30,02
491,128	30,04
491,478	30,07
491,828	30,08
492,179	30,11
492,529	30,13
492,879	30,14
493,229	30,17
493,579	30,19
493,929	30,2
494,279	30,23
494,629	30,27
494,979	30,29
495,328	30,31
495,678	30,35
496,028	30,42
496,378	30,44
496,727	30,43
497,077	30,47
497,426	30,47
497,776	30,49
498,125	30,49
498,475	30,5
498,824	30,52
499,174	30,51
499,523	30,51
499,872	30,53
500,221	30,55
500,571	30,53
500,92	30,52
501,269	30,54
501,618	30,53
501,967	30,54
502,316	30,57
502,665	30,6
503,014	30,6
503,363	30,62
503,711	30,65
504,06	30,69
504,409	30,69
504,758	30,72
505,106	30,73
505,455	30,75
505,803	30,76
506,152	30,74
506,5	30,78
506,849	30,8
507,197	30,77
507,546	30,77
507,894	30,79
508,242	30,81
508,59	30,82
508,939	30,84
509,287	30,84
509,635	30,83
509,983	30,81
510,331	30,83
510,679	30,83
511,027	30,84
511,375	30,83
511,723	30,84
512,07	30,86
512,418	30,89
512,766	30,89
513,114	30,91
513,461	30,96
513,809	30,96
514,156	30,96
514,504	30,98
514,851	30,99
515,199	30,97
515,546	30,98
515,893	30,94
516,241	30,95
516,588	30,95
516,935	30,97
517,282	30,98
517,63	31
517,977	31
518,324	31
518,671	31,03
519,018	31,04
519,365	31,05
519,711	31,04
520,058	31,07
520,405	31,07
520,752	31,06
521,099	31,05
521,445	31,07
521,792	31,06
522,138	31,09
522,485	31,11
522,832	31,13
523,178	31,14
523,524	31,15
523,871	31,16
524,217	31,15
524,563	31,18
524,91	31,16
525,256	31,18
525,602	31,2
525,948	31,2
526,294	31,2
526,64	31,19
526,986	31,18
527,332	31,16
527,678	31,17
528,024	31,18
528,37	31,2
528,716	31,18
529,061	31,2
529,407	31,18
529,753	31,19
530,098	31,19
530,444	31,2
530,789	31,22
531,135	31,21
531,48	31,21
531,826	31,21
532,171	31,25
532,516	31,23
532,862	31,21
533,207	31,21
533,552	31,22
533,897	31,22
534,242	31,24
534,587	31,25
534,932	31,25
535,277	31,27
535,622	31,29
535,967	31,32
536,312	31,34
536,657	31,37
537,001	31,38
537,346	31,38
537,691	31,41
538,035	31,4
538,38	31,42
538,724	31,46
539,069	31,45
539,413	31,45
539,758	31,46
540,102	31,48
540,446	31,48
540,791	31,48
541,135	31,49
541,479	31,51
541,823	31,55
542,167	31,55
542,512	31,53
542,856	31,5
543,2	31,51
543,543	31,51
543,887	31,52
544,231	31,54
544,575	31,56
544,919	31,56
545,262	31,59
545,606	31,61
545,95	31,59
546,293	31,6
546,637	31,6
546,98	31,6
547,324	31,6
547,667	31,63
548,011	31,64
548,354	31,65
548,697	31,64
549,04	31,62
549,384	31,6
549,727	31,61
550,07	31,64
550,413	31,62
550,756	31,62
551,099	31,64
551,442	31,64
551,785	31,66
552,128	31,68
552,47	31,66
552,813	31,68
553,156	31,69
553,499	31,69
553,841	31,72
554,184	31,76
554,526	31,75
554,869	31,75
555,211	31,76
555,554	31,75
555,896	31,76
556,238	31,75
556,581	31,76
556,923	31,77
557,265	31,73
557,607	31,73
557,949	31,72
558,291	31,68
558,633	31,65
558,975	31,62
559,317	31,59
559,659	31,58
560,001	31,55
560,343	31,53
560,685	31,54
561,026	31,51
561,368	31,48
561,71	31,46
562,051	31,45
562,393	31,46
562,734	31,44
563,076	31,4
563,417	31,41
563,759	31,41
564,1	31,44
564,441	31,46
564,782	31,42
565,124	31,37
565,465	31,37
565,806	31,33
566,147	31,35
566,488	31,36
566,829	31,35
567,17	31,35
567,511	31,34
567,851	31,34
568,192	31,34
568,533	31,34
568,874	31,37
569,214	31,39
569,555	31,35
569,895	31,34
570,236	31,37
570,576	31,34
570,917	31,33
571,257	31,3
571,598	31,3
571,938	31,35
572,278	31,37
572,618	31,38
572,959	31,42
573,299	31,41
573,639	31,4
573,979	31,42
574,319	31,41
574,659	31,41
574,999	31,41
575,339	31,39
575,678	31,39
576,018	31,37
576,358	31,35
576,698	31,36
577,037	31,4
577,377	31,36
577,716	31,35
578,056	31,35
578,395	31,32
578,735	31,31
579,074	31,3
579,413	31,28
579,753	31,31
580,092	31,26
580,431	31,22
580,77	31,23
581,109	31,18
581,448	31,14
581,787	31,13
582,126	31,12
582,465	31,13
582,804	31,14
583,143	31,15
583,482	31,14
583,82	31,14
584,159	31,13
584,498	31,15
584,836	31,16
585,175	31,14
585,514	31,16
585,852	31,17
586,19	31,15
586,529	31,16
586,867	31,11
587,205	31,13
587,544	31,12
587,882	31,08
588,22	31,12
588,558	31,16
588,896	31,15
589,234	31,12
589,572	31,11
589,91	31,08
590,248	31,08
590,586	31,05
590,924	31,05
591,262	31,04
591,599	31,04
591,937	31,03
592,275	31,05
592,612	31,09
592,95	31,11
593,287	31,13
593,625	31,13
593,962	31,15
594,299	31,14
594,637	31,2
594,974	31,26
595,311	31,25
595,648	31,23
595,985	31,24
596,322	31,27
596,659	31,26
596,996	31,27
597,333	31,25
597,67	31,28
598,007	31,26
598,344	31,23
598,681	31,24
599,017	31,27
599,354	31,27
599,691	31,23
600,027	31,22
600,364	31,22
600,7	31,25
601,037	31,28
601,373	31,32
601,71	31,37
602,046	31,36
602,382	31,35
602,718	31,37
603,054	31,39
603,391	31,4
603,727	31,41
604,063	31,43
604,399	31,43
604,735	31,46
605,071	31,49
605,406	31,51
605,742	31,54
606,078	31,52
606,414	31,5
606,749	31,54
607,085	31,55
607,421	31,56
607,756	31,55
608,092	31,48
608,427	31,46
608,762	31,42
609,098	31,41
609,433	31,41
609,768	31,41
610,104	31,37
610,439	31,29
610,774	31,33
611,109	31,32
611,444	31,28
611,779	31,23
612,114	31,2
612,449	31,23
612,784	31,18
613,118	31,18
613,453	31,19
613,788	31,11
614,123	31,04
614,457	31,03
614,792	30,99
615,126	31,08
615,461	31,09
615,795	31,08
616,13	31,03
616,464	31,04
616,798	30,99
617,132	31,03
617,467	31,09
617,801	31,06
618,135	31,05
618,469	31,11
618,803	31,11
619,137	31,14
619,471	31,07
619,805	31,03
620,139	31,04
620,472	31,06
620,806	31,07
621,14	31,09
621,473	31,08
621,807	31,08
622,141	31,02
622,474	30,98
622,808	30,97
623,141	31,01
623,474	31
623,808	31,07
624,141	31,11
624,474	31,19
624,807	31,18
625,141	31,18
625,474	31,2
625,807	31,23
626,14	31,21
626,473	31,26
626,806	31,29
627,138	31,3
627,471	31,27
627,804	31,29
628,137	31,34
628,469	31,32
628,802	31,34
629,135	31,32
629,467	31,33
629,8	31,33
630,132	31,35
630,465	31,38
630,797	31,38
631,129	31,37
631,461	31,28
631,794	31,29
632,126	31,29
632,458	31,26
632,79	31,28
633,122	31,28
633,454	31,3
633,786	31,28
634,118	31,24
634,45	31,28
634,781	31,26
635,113	31,23
635,445	31,25
635,777	31,25
636,108	31,31
636,44	31,35
636,771	31,35
637,103	31,32
637,434	31,26
637,765	31,21
638,097	31,21
638,428	31,19
638,759	31,15
639,09	31,17
639,422	31,2
639,753	31,16
640,084	31,15
640,415	31,1
640,746	31,12
641,077	31,13
641,407	31,08
641,738	31,11
642,069	31,05
642,4	31,08
642,73	31,03
643,061	30,99
643,392	30,94
643,722	30,99
644,053	31,04
644,383	31,06
644,713	31,14
645,044	31,1
645,374	31,15
645,704	31,2
