Data from zc74019_4_Reflection_00005.txt Node
Date: Thu Mar 12 14:43:42 ART 2020
User: Ana
Spectrometer: USB2E3644
Trigger mode: 4
Integration Time (sec): 5,000000E-2
Scans to average: 10
Electric dark correction enabled: true
Nonlinearity correction enabled: false
Boxcar width: 10
XAxis mode: Wavelengths
Number of Pixels in Spectrum: 2048
>>>>>Begin Spectral Data<<<<<
178,315	107,86
178,696	100,45
179,076	80,6
179,457	78,15
179,838	78,46
180,218	83,07
180,599	54,44
180,979	27,59
181,36	194,44
181,74	138,89
182,121	131,41
182,501	136,16
182,881	134,47
183,262	128,32
183,642	128,91
184,022	130,29
184,402	131,91
184,783	130,7
185,163	127,27
185,543	128,93
185,923	130,48
186,303	130,61
186,683	129,22
187,063	126,66
187,443	127,36
187,823	131,94
188,203	136,97
188,583	140,32
188,963	141,1
189,343	138,27
189,723	136,36
190,102	135,2
190,482	133,7
190,862	132,5
191,242	131,99
191,621	131,16
192,001	128,88
192,38	128,43
192,76	126,87
193,14	126,09
193,519	125,07
193,898	126,57
194,278	127,8
194,657	126,9
195,037	124,67
195,416	123,32
195,795	122,74
196,175	123,01
196,554	123
196,933	123,41
197,312	125,4
197,692	128
198,071	129,85
198,45	131,29
198,829	133,58
199,208	135,48
199,587	136,28
199,966	134,32
200,345	131,46
200,724	131,76
201,103	133,62
201,482	134,58
201,86	132,67
202,239	131,92
202,618	131,59
202,997	131,37
203,375	130,68
203,754	129,72
204,133	128,04
204,511	125,79
204,89	124,96
205,269	124,29
205,647	122,06
206,026	121,4
206,404	123,02
206,782	122,91
207,161	122,19
207,539	122,29
207,918	124,37
208,296	126,82
208,674	127,39
209,052	127,72
209,431	130,31
209,809	134,39
210,187	137,47
210,565	139,97
210,943	141,65
211,321	143,8
211,699	144,54
212,077	144,24
212,455	144,1
212,833	145,88
213,211	145,85
213,589	149,29
213,967	150,85
214,345	147
214,722	142,14
215,1	140,03
215,478	137,94
215,855	137,09
216,233	136,78
216,611	134,48
216,988	132,2
217,366	128,92
217,743	127,71
218,121	126,47
218,498	124,3
218,876	124,06
219,253	123,98
219,631	124,32
220,008	125,58
220,385	127,99
220,762	126,58
221,14	126,24
221,517	124,49
221,894	121,87
222,271	121,17
222,648	123,52
223,025	126,11
223,402	128,03
223,78	130,39
224,157	132,92
224,533	138,13
224,91	144,15
225,287	150,32
225,664	156,08
226,041	161,45
226,418	167,92
226,795	173,27
227,171	182,6
227,548	189,97
227,925	193,02
228,301	198,57
228,678	204,94
229,055	206,32
229,431	209,92
229,808	214,8
230,184	219,37
230,561	227,39
230,937	238,47
231,313	251,38
231,69	255,67
232,066	257,36
232,442	247,85
232,819	240,3
233,195	234,69
233,571	231,5
233,947	225,7
234,323	225,52
234,699	227,05
235,075	225,53
235,451	227,83
235,827	234,05
236,203	243,69
236,579	256,67
236,955	278,03
237,331	303,67
237,707	351,94
238,083	434,03
238,459	572,05
238,834	1012,01
239,21	6187,78
239,586	-1412,56
239,961	-807,23
240,337	-576,05
240,713	-497,36
241,088	-460,19
241,464	-433,41
241,839	-400,07
242,215	-336,55
242,59	-267,08
242,965	-186,74
243,341	-131,38
243,716	-96,92
244,091	-80,23
244,467	-71,19
244,842	-64,62
245,217	-60,04
245,592	-57,98
245,967	-58,46
246,343	-58,12
246,718	-57,54
247,093	-59
247,468	-60,19
247,843	-59,46
248,218	-56,93
248,593	-52,09
248,967	-47,45
249,342	-44,93
249,717	-43,42
250,092	-42,76
250,467	-43,55
250,841	-47,21
251,216	-53,35
251,591	-61,99
251,965	-69,13
252,34	-73,82
252,714	-79,57
253,089	-82,62
253,463	-84,21
253,838	-82,22
254,212	-79,35
254,587	-76,96
254,961	-69,77
255,335	-61,02
255,71	-52,08
256,084	-42,4
256,458	-35,68
256,832	-31,39
257,206	-28,99
257,581	-27,44
257,955	-26,35
258,329	-25,07
258,703	-23,57
259,077	-22,26
259,451	-21,08
259,825	-20,86
260,199	-21,46
260,572	-21,46
260,946	-21,63
261,32	-21,43
261,694	-20,96
262,068	-20,84
262,441	-20,47
262,815	-20,51
263,189	-20,16
263,562	-20,31
263,936	-21,74
264,309	-24,08
264,683	-26,54
265,056	-27,69
265,43	-28,33
265,803	-28,67
266,176	-28,88
266,55	-28,86
266,923	-28,78
267,296	-28,29
267,67	-27,07
268,043	-25,58
268,416	-23,93
268,789	-22,4
269,162	-20,99
269,535	-19,92
269,908	-19,18
270,281	-18,65
270,654	-18,42
271,027	-18,91
271,4	-19,1
271,773	-19,02
272,146	-18,76
272,519	-18,43
272,891	-18,13
273,264	-17,95
273,637	-17,79
274,01	-17,34
274,382	-17,44
274,755	-17,35
275,127	-17,5
275,5	-17,71
275,872	-17,75
276,245	-18,01
276,617	-18,62
276,99	-19,07
277,362	-19,74
277,734	-19,8
278,107	-19,92
278,479	-19,89
278,851	-19,73
279,223	-19,62
279,596	-19,69
279,968	-19,96
280,34	-20,15
280,712	-19,95
281,084	-19,29
281,456	-18,34
281,828	-17,42
282,2	-16,29
282,572	-15,34
282,944	-14,54
283,315	-14,15
283,687	-13,91
284,059	-13,86
284,431	-13,65
284,802	-13,29
285,174	-12,77
285,546	-12,41
285,917	-11,97
286,289	-11,67
286,66	-11,47
287,032	-11,28
287,403	-10,98
287,775	-10,54
288,146	-10,34
288,518	-10,41
288,889	-10,4
289,26	-10,48
289,632	-10,84
290,003	-11,19
290,374	-11,55
290,745	-11,77
291,116	-11,83
291,487	-11,67
291,858	-11,36
292,229	-11,13
292,6	-10,99
292,971	-10,6
293,342	-10,24
293,713	-9,81
294,084	-9,5
294,455	-8,99
294,826	-8,62
295,196	-8,61
295,567	-8,92
295,938	-8,76
296,308	-8,44
296,679	-8,18
297,05	-7,98
297,42	-7,68
297,791	-7,31
298,161	-7,16
298,532	-6,96
298,902	-6,76
299,272	-6,51
299,643	-6,37
300,013	-6,24
300,383	-6,06
300,754	-6,06
301,124	-6
301,494	-6,09
301,864	-6,05
302,234	-6,05
302,604	-6,08
302,974	-5,97
303,344	-5,71
303,714	-5,64
304,084	-5,38
304,454	-5,41
304,824	-5,41
305,194	-5,39
305,563	-5,39
305,933	-5,21
306,303	-4,95
306,673	-4,67
307,042	-4,44
307,412	-4,08
307,781	-3,62
308,151	-3,35
308,521	-3,18
308,89	-3
309,259	-2,99
309,629	-2,91
309,998	-2,76
310,368	-2,6
310,737	-2,39
311,106	-2,2
311,475	-2,04
311,845	-2,11
312,214	-1,95
312,583	-1,7
312,952	-1,57
313,321	-1,51
313,69	-1,34
314,059	-1,39
314,428	-1,44
314,797	-1,5
315,166	-1,72
315,535	-1,96
315,904	-2,15
316,272	-2,34
316,641	-2,61
317,01	-2,67
317,379	-2,68
317,747	-2,73
318,116	-2,67
318,484	-2,7
318,853	-2,75
319,221	-2,69
319,59	-2,55
319,958	-2,56
320,327	-2,67
320,695	-2,68
321,063	-2,49
321,432	-2,2
321,8	-1,91
322,168	-1,81
322,536	-1,87
322,905	-1,6
323,273	-1,35
323,641	-1,16
324,009	-0,9
324,377	-0,68
324,745	-0,42
325,113	-0,15
325,481	0,09
325,849	0,21
326,216	0,3
326,584	0,53
326,952	0,7
327,32	0,88
327,687	1
328,055	1,19
328,423	1,38
328,79	1,45
329,158	1,39
329,525	1,31
329,893	1,33
330,26	1,52
330,628	1,5
330,995	1,57
331,362	1,59
331,73	1,59
332,097	1,66
332,464	1,7
332,831	1,73
333,199	1,71
333,566	1,81
333,933	2,05
334,3	2,15
334,667	2,14
335,034	2,12
335,401	2,12
335,768	2,1
336,135	2,09
336,502	2,13
336,868	2,21
337,235	2,3
337,602	2,45
337,969	2,58
338,335	2,78
338,702	2,94
339,069	3,13
339,435	3,25
339,802	3,35
340,168	3,46
340,535	3,54
340,901	3,54
341,267	3,53
341,634	3,51
342	3,51
342,366	3,64
342,733	3,63
343,099	3,71
343,465	3,75
343,831	3,84
344,197	3,88
344,563	3,89
344,929	3,93
345,295	4,02
345,661	4,15
346,027	4,21
346,393	4,19
346,759	4,17
347,125	4,22
347,491	4,24
347,856	4,27
348,222	4,26
348,588	4,37
348,953	4,45
349,319	4,49
349,684	4,52
350,05	4,52
350,415	4,69
350,781	4,84
351,146	4,96
351,512	5,03
351,877	5,12
352,242	5,24
352,608	5,37
352,973	5,48
353,338	5,53
353,703	5,63
354,068	5,72
354,433	5,88
354,798	5,96
355,164	6,04
355,528	6,1
355,893	6,14
356,258	6,15
356,623	6,23
356,988	6,36
357,353	6,47
357,718	6,57
358,082	6,61
358,447	6,66
358,812	6,79
359,176	6,87
359,541	6,95
359,905	7,01
360,27	7,04
360,634	7,07
360,999	7,1
361,363	7,13
361,728	7,22
362,092	7,28
362,456	7,33
362,821	7,37
363,185	7,41
363,549	7,51
363,913	7,59
364,277	7,64
364,641	7,66
365,005	7,73
365,369	7,78
365,733	7,84
366,097	7,87
366,461	7,91
366,825	8
367,189	8,04
367,553	8,12
367,916	8,27
368,28	8,37
368,644	8,44
369,007	8,5
369,371	8,55
369,734	8,58
370,098	8,65
370,461	8,74
370,825	8,81
371,188	8,89
371,552	8,94
371,915	9,03
372,278	9,16
372,642	9,24
373,005	9,34
373,368	9,48
373,731	9,59
374,094	9,65
374,457	9,71
374,82	9,8
375,183	9,85
375,546	9,9
375,909	9,93
376,272	10,05
376,635	10,15
376,998	10,2
377,361	10,25
377,723	10,29
378,086	10,34
378,449	10,42
378,811	10,48
379,174	10,58
379,537	10,63
379,899	10,65
380,262	10,7
380,624	10,77
380,987	10,81
381,349	10,87
381,711	10,94
382,074	11,01
382,436	11,1
382,798	11,21
383,16	11,23
383,522	11,29
383,884	11,3
384,247	11,31
384,609	11,39
384,971	11,46
385,333	11,52
385,695	11,58
386,056	11,62
386,418	11,63
386,78	11,64
387,142	11,63
387,504	11,67
387,865	11,7
388,227	11,71
388,589	11,72
388,95	11,72
389,312	11,74
389,673	11,79
390,035	11,81
390,396	11,81
390,758	11,86
391,119	11,9
391,48	11,92
391,842	12
392,203	11,98
392,564	12
392,925	12,08
393,286	12,08
393,648	12,14
394,009	12,22
394,37	12,24
394,731	12,31
395,092	12,33
395,452	12,36
395,813	12,39
396,174	12,42
396,535	12,44
396,896	12,46
397,257	12,49
397,617	12,57
397,978	12,59
398,338	12,61
398,699	12,66
399,06	12,74
399,42	12,72
399,781	12,75
400,141	12,79
400,501	12,8
400,862	12,84
401,222	12,85
401,582	12,87
401,943	12,91
402,303	12,92
402,663	12,94
403,023	12,97
403,383	13,01
403,743	13,03
404,103	13,07
404,463	13,09
404,823	13,13
405,183	13,11
405,543	13,17
405,903	13,2
406,262	13,22
406,622	13,17
406,982	13,2
407,342	13,28
407,701	13,32
408,061	13,34
408,42	13,37
408,78	13,4
409,139	13,41
409,499	13,43
409,858	13,45
410,217	13,5
410,577	13,48
410,936	13,51
411,295	13,51
411,655	13,51
412,014	13,49
412,373	13,45
412,732	13,42
413,091	13,41
413,45	13,35
413,809	13,33
414,168	13,32
414,527	13,28
414,886	13,2
415,245	13,15
415,603	13,1
415,962	13,07
416,321	13,03
416,679	13,01
417,038	12,98
417,397	12,93
417,755	12,9
418,114	12,89
418,472	12,86
418,831	12,86
419,189	12,88
419,547	12,87
419,906	12,87
420,264	12,86
420,622	12,84
420,981	12,85
421,339	12,84
421,697	12,85
422,055	12,87
422,413	12,9
422,771	12,91
423,129	12,95
423,487	12,97
423,845	13,02
424,203	13,05
424,56	13,06
424,918	13,12
425,276	13,15
425,634	13,19
425,991	13,23
426,349	13,25
426,707	13,27
427,064	13,33
427,422	13,38
427,779	13,41
428,137	13,47
428,494	13,53
428,851	13,55
429,209	13,57
429,566	13,57
429,923	13,6
430,28	13,62
430,637	13,61
430,995	13,6
431,352	13,57
431,709	13,58
432,066	13,62
432,423	13,64
432,78	13,64
433,137	13,65
433,493	13,63
433,85	13,68
434,207	13,66
434,564	13,66
434,92	13,64
435,277	13,67
435,634	13,65
435,99	13,64
436,347	13,65
436,703	13,67
437,06	13,68
437,416	13,68
437,773	13,69
438,129	13,69
438,485	13,71
438,841	13,73
439,198	13,73
439,554	13,72
439,91	13,73
440,266	13,73
440,622	13,74
440,978	13,76
441,334	13,72
441,69	13,73
442,046	13,73
442,402	13,72
442,758	13,71
443,113	13,74
443,469	13,76
443,825	13,77
444,181	13,79
444,536	13,8
444,892	13,82
445,247	13,83
445,603	13,84
445,958	13,83
446,314	13,85
446,669	13,86
447,025	13,88
447,38	13,89
447,735	13,9
448,09	13,9
448,446	13,91
448,801	13,93
449,156	13,94
449,511	13,97
449,866	14
450,221	14,04
450,576	14,06
450,931	14,1
451,286	14,14
451,641	14,17
451,995	14,2
452,35	14,24
452,705	14,25
453,06	14,27
453,414	14,29
453,769	14,32
454,123	14,33
454,478	14,33
454,832	14,34
455,187	14,34
455,541	14,34
455,896	14,34
456,25	14,36
456,604	14,35
456,958	14,33
457,313	14,35
457,667	14,35
458,021	14,37
458,375	14,36
458,729	14,37
459,083	14,38
459,437	14,41
459,791	14,4
460,145	14,4
460,499	14,39
460,852	14,4
461,206	14,4
461,56	14,39
461,914	14,42
462,267	14,43
462,621	14,44
462,974	14,46
463,328	14,48
463,681	14,46
464,035	14,49
464,388	14,53
464,742	14,54
465,095	14,55
465,448	14,54
465,801	14,55
466,155	14,54
466,508	14,54
466,861	14,5
467,214	14,51
467,567	14,53
467,92	14,55
468,273	14,55
468,626	14,54
468,979	14,54
469,332	14,54
469,684	14,53
470,037	14,55
470,39	14,57
470,743	14,58
471,095	14,63
471,448	14,66
471,8	14,67
472,153	14,69
472,505	14,71
472,858	14,72
473,21	14,73
473,562	14,74
473,915	14,77
474,267	14,78
474,619	14,78
474,971	14,76
475,324	14,76
475,676	14,78
476,028	14,78
476,38	14,81
476,732	14,82
477,084	14,82
477,436	14,82
477,787	14,84
478,139	14,84
478,491	14,83
478,843	14,81
479,195	14,8
479,546	14,75
479,898	14,72
480,249	14,69
480,601	14,69
480,952	14,71
481,304	14,72
481,655	14,74
482,007	14,77
482,358	14,8
482,709	14,82
483,061	14,81
483,412	14,81
483,763	14,81
484,114	14,8
484,465	14,81
484,816	14,81
485,167	14,81
485,518	14,83
485,869	14,85
486,22	14,86
486,571	14,87
486,922	14,9
487,272	14,93
487,623	14,96
487,974	14,97
488,324	14,96
488,675	14,95
489,025	14,95
489,376	14,95
489,726	14,96
490,077	14,97
490,427	14,99
490,778	15,01
491,128	15,03
491,478	15,05
491,828	15,07
492,179	15,08
492,529	15,1
492,879	15,1
493,229	15,09
493,579	15,08
493,929	15,09
494,279	15,1
494,629	15,11
494,979	15,14
495,328	15,19
495,678	15,24
496,028	15,28
496,378	15,29
496,727	15,3
497,077	15,29
497,426	15,28
497,776	15,27
498,125	15,29
498,475	15,31
498,824	15,33
499,174	15,34
499,523	15,36
499,872	15,37
500,221	15,37
500,571	15,38
500,92	15,4
501,269	15,4
501,618	15,39
501,967	15,42
502,316	15,42
502,665	15,42
503,014	15,43
503,363	15,44
503,711	15,44
504,06	15,45
504,409	15,45
504,758	15,46
505,106	15,46
505,455	15,46
505,803	15,45
506,152	15,45
506,5	15,45
506,849	15,45
507,197	15,46
507,546	15,48
507,894	15,49
508,242	15,5
508,59	15,49
508,939	15,5
509,287	15,51
509,635	15,52
509,983	15,53
510,331	15,56
510,679	15,59
511,027	15,6
511,375	15,62
511,723	15,61
512,07	15,62
512,418	15,65
512,766	15,66
513,114	15,67
513,461	15,68
513,809	15,69
514,156	15,71
514,504	15,69
514,851	15,69
515,199	15,69
515,546	15,68
515,893	15,72
516,241	15,74
516,588	15,75
516,935	15,76
517,282	15,77
517,63	15,77
517,977	15,76
518,324	15,78
518,671	15,79
519,018	15,82
519,365	15,85
519,711	15,86
520,058	15,87
520,405	15,86
520,752	15,87
521,099	15,88
521,445	15,89
521,792	15,91
522,138	15,92
522,485	15,94
522,832	15,94
523,178	15,95
523,524	15,97
523,871	15,97
524,217	15,97
524,563	15,94
524,91	15,92
525,256	15,91
525,602	15,9
525,948	15,92
526,294	15,96
526,64	15,98
526,986	16,01
527,332	16,03
527,678	16,05
528,024	16,07
528,37	16,09
528,716	16,09
529,061	16,11
529,407	16,12
529,753	16,11
530,098	16,11
530,444	16,11
530,789	16,12
531,135	16,13
531,48	16,15
531,826	16,19
532,171	16,22
532,516	16,26
532,862	16,29
533,207	16,27
533,552	16,27
533,897	16,26
534,242	16,24
534,587	16,24
534,932	16,26
535,277	16,26
535,622	16,25
535,967	16,26
536,312	16,27
536,657	16,28
537,001	16,3
537,346	16,33
537,691	16,33
538,035	16,3
538,38	16,28
538,724	16,28
539,069	16,28
539,413	16,3
539,758	16,31
540,102	16,33
540,446	16,36
540,791	16,36
541,135	16,37
541,479	16,38
541,823	16,39
542,167	16,38
542,512	16,39
542,856	16,39
543,2	16,38
543,543	16,36
543,887	16,37
544,231	16,38
544,575	16,4
544,919	16,42
545,262	16,47
545,606	16,5
545,95	16,5
546,293	16,49
546,637	16,47
546,98	16,48
547,324	16,48
547,667	16,49
548,011	16,48
548,354	16,47
548,697	16,47
549,04	16,48
549,384	16,47
549,727	16,46
550,07	16,46
550,413	16,49
550,756	16,51
551,099	16,52
551,442	16,54
551,785	16,53
552,128	16,54
552,47	16,5
552,813	16,5
553,156	16,49
553,499	16,5
553,841	16,51
554,184	16,49
554,526	16,49
554,869	16,45
555,211	16,45
555,554	16,46
555,896	16,46
556,238	16,43
556,581	16,39
556,923	16,39
557,265	16,37
557,607	16,33
557,949	16,33
558,291	16,3
558,633	16,28
558,975	16,27
559,317	16,25
559,659	16,25
560,001	16,24
560,343	16,23
560,685	16,23
561,026	16,24
561,368	16,24
561,71	16,19
562,051	16,15
562,393	16,16
562,734	16,1
563,076	16,1
563,417	16,1
563,759	16,12
564,1	16,12
564,441	16,12
564,782	16,12
565,124	16,08
565,465	16,09
565,806	16,09
566,147	16,1
566,488	16,11
566,829	16,09
567,17	16,09
567,511	16,13
567,851	16,13
568,192	16,1
568,533	16,08
568,874	16,08
569,214	16,12
569,555	16,11
569,895	16,13
570,236	16,1
570,576	16,1
570,917	16,09
571,257	16,06
571,598	16,05
571,938	16,06
572,278	16,08
572,618	16,1
572,959	16,1
573,299	16,11
573,639	16,08
573,979	16,09
574,319	16,08
574,659	16,05
574,999	16,02
575,339	16,01
575,678	16,02
576,018	16,03
576,358	15,99
576,698	15,96
577,037	15,98
577,377	15,99
577,716	15,96
578,056	15,95
578,395	15,97
578,735	15,93
579,074	15,9
579,413	15,87
579,753	15,82
580,092	15,77
580,431	15,75
580,77	15,78
581,109	15,76
581,448	15,76
581,787	15,73
582,126	15,73
582,465	15,71
582,804	15,7
583,143	15,72
583,482	15,72
583,82	15,73
584,159	15,71
584,498	15,7
584,836	15,72
585,175	15,71
585,514	15,73
585,852	15,74
586,19	15,74
586,529	15,75
586,867	15,79
587,205	15,79
587,544	15,78
587,882	15,76
588,22	15,76
588,558	15,77
588,896	15,81
589,234	15,8
589,572	15,81
589,91	15,83
590,248	15,82
590,586	15,83
590,924	15,84
591,262	15,84
591,599	15,85
591,937	15,87
592,275	15,87
592,612	15,88
592,95	15,91
593,287	15,95
593,625	15,96
593,962	15,95
594,299	15,99
594,637	16,05
594,974	16,07
595,311	16,1
595,648	16,11
595,985	16,12
596,322	16,15
596,659	16,17
596,996	16,17
597,333	16,14
597,67	16,11
598,007	16,11
598,344	16,1
598,681	16,09
599,017	16,09
599,354	16,11
599,691	16,08
600,027	16,09
600,364	16,1
600,7	16,12
601,037	16,19
601,373	16,21
601,71	16,21
602,046	16,24
602,382	16,24
602,718	16,25
603,054	16,26
603,391	16,27
603,727	16,29
604,063	16,29
604,399	16,32
604,735	16,36
605,071	16,38
605,406	16,4
605,742	16,43
606,078	16,44
606,414	16,45
606,749	16,48
607,085	16,5
607,421	16,49
607,756	16,5
608,092	16,45
608,427	16,45
608,762	16,41
609,098	16,37
609,433	16,37
609,768	16,36
610,104	16,37
610,439	16,31
610,774	16,29
611,109	16,27
611,444	16,27
611,779	16,24
612,114	16,24
612,449	16,25
612,784	16,2
613,118	16,17
613,453	16,14
613,788	16,11
614,123	16,05
614,457	16,03
614,792	15,99
615,126	15,96
615,461	15,93
615,795	15,91
616,13	15,94
616,464	15,91
616,798	15,86
617,132	15,83
617,467	15,85
617,801	15,84
618,135	15,88
618,469	15,86
618,803	15,9
619,137	15,89
619,471	15,9
619,805	15,91
620,139	15,95
620,472	15,94
620,806	15,95
621,14	15,94
621,473	15,93
621,807	15,94
622,141	15,94
622,474	15,96
622,808	15,95
623,141	15,95
623,474	15,97
623,808	15,99
624,141	16,02
624,474	16,08
624,807	16,07
625,141	16,08
625,474	16,14
625,807	16,15
626,14	16,14
626,473	16,14
626,806	16,16
627,138	16,16
627,471	16,16
627,804	16,19
628,137	16,25
628,469	16,26
628,802	16,26
629,135	16,26
629,467	16,24
629,8	16,27
630,132	16,25
630,465	16,27
630,797	16,3
631,129	16,3
631,461	16,29
631,794	16,32
632,126	16,34
632,458	16,32
632,79	16,33
633,122	16,38
633,454	16,37
633,786	16,35
634,118	16,32
634,45	16,38
634,781	16,38
635,113	16,39
635,445	16,39
635,777	16,41
636,108	16,4
636,44	16,43
636,771	16,43
637,103	16,41
637,434	16,39
637,765	16,41
638,097	16,42
638,428	16,43
638,759	16,41
639,09	16,36
639,422	16,33
639,753	16,33
640,084	16,28
640,415	16,29
640,746	16,29
641,077	16,29
641,407	16,26
641,738	16,21
642,069	16,2
642,4	16,22
642,73	16,22
643,061	16,23
643,392	16,18
643,722	16,19
644,053	16,25
644,383	16,25
644,713	16,24
645,044	16,23
645,374	16,22
645,704	16,23
646,034	16,26
646,365	16,27
646,695	16,3
647,025	16,33
647,355	16,37
647,685	16,4
648,015	16,45
