Data from zc74019_1_Reflection_00003.txt Node
Date: Thu Mar 12 14:40:36 ART 2020
User: Ana
Spectrometer: USB2E3644
Trigger mode: 4
Integration Time (sec): 5,000000E-2
Scans to average: 10
Electric dark correction enabled: true
Nonlinearity correction enabled: false
Boxcar width: 10
XAxis mode: Wavelengths
Number of Pixels in Spectrum: 2048
>>>>>Begin Spectral Data<<<<<
178,315	89,47
178,696	81,53
179,076	59,1
179,457	38,7
179,838	28,46
180,218	0,53
180,599	-148,89
180,979	75,86
181,36	31,11
181,74	65,08
182,121	114,1
182,501	131,45
182,881	139,27
183,262	134,63
183,642	129,29
184,022	128,09
184,402	131,06
184,783	130,95
185,163	127,92
185,543	126,69
185,923	125,35
186,303	124,61
186,683	121,41
187,063	117,4
187,443	118,31
187,823	124,38
188,203	130,09
188,583	139,16
188,963	143,72
189,343	143,58
189,723	144,63
190,102	143,14
190,482	137,51
190,862	133,81
191,242	133,26
191,621	133,48
192,001	129,4
192,38	127,72
192,76	125,03
193,14	121,96
193,519	121,97
193,898	124,55
194,278	124,3
194,657	123,4
195,037	122,72
195,416	120,72
195,795	120,38
196,175	121,39
196,554	119,45
196,933	118,39
197,312	118,27
197,692	118,06
198,071	117,53
198,45	118,03
198,829	120,51
199,208	122
199,587	122,13
199,966	121,9
200,345	121,74
200,724	123,79
201,103	126,17
201,482	126,37
201,86	123,52
202,239	123
202,618	122,81
202,997	122,46
203,375	121,33
203,754	120,14
204,133	118,43
204,511	117,01
204,89	117,15
205,269	118,53
205,647	118,76
206,026	120,13
206,404	123,21
206,782	124,11
207,161	124,67
207,539	124,8
207,918	126,78
208,296	126,75
208,674	126,68
209,052	127
209,431	128,62
209,809	132,49
210,187	134,49
210,565	135,49
210,943	135,8
211,321	136,68
211,699	136,49
212,077	134,54
212,455	134,14
212,833	135,47
213,211	133,65
213,589	133,88
213,967	133,44
214,345	129,09
214,722	123,69
215,1	121,46
215,478	120,8
215,855	118,48
216,233	118,24
216,611	115,9
216,988	113,04
217,366	110,81
217,743	109,78
218,121	110,28
218,498	111,62
218,876	111,5
219,253	111,08
219,631	111,7
220,008	115,19
220,385	117,51
220,762	117,65
221,14	117,47
221,517	115,05
221,894	113,05
222,271	113,06
222,648	115,55
223,025	116,33
223,402	115,78
223,78	116,61
224,157	117,88
224,533	121,32
224,91	128,98
225,287	135,66
225,664	140,66
226,041	144,33
226,418	148,75
226,795	154,13
227,171	163,64
227,548	168,98
227,925	169,41
228,301	172,4
228,678	173,94
229,055	176,97
229,431	182,88
229,808	187,96
230,184	190,89
230,561	195,62
230,937	206,12
231,313	217,9
231,69	223,27
232,066	226,22
232,442	218,32
232,819	209
233,195	202,89
233,571	202,85
233,947	200,64
234,323	200,4
234,699	203,33
235,075	202,83
235,451	206,37
235,827	210,58
236,203	216,58
236,579	227,23
236,955	244,55
237,331	266,34
237,707	307,02
238,083	379,84
238,459	504,07
238,834	891,04
239,21	5491,11
239,586	-1254,87
239,961	-717,4
240,337	-515,61
240,713	-451,18
241,088	-420,03
241,464	-393,74
241,839	-359,18
242,215	-301,29
242,59	-237
242,965	-166,6
243,341	-117,72
243,716	-87,68
244,091	-73,65
244,467	-65,89
244,842	-59,41
245,217	-54,87
245,592	-52,62
245,967	-53,29
246,343	-53,48
246,718	-53,22
247,093	-54,31
247,468	-54,92
247,843	-53,8
248,218	-51,32
248,593	-47,05
248,967	-43,32
249,342	-41,21
249,717	-40,71
250,092	-40,39
250,467	-40,66
250,841	-43,33
251,216	-48,51
251,591	-56,2
251,965	-62,69
252,34	-66,72
252,714	-72,45
253,089	-76,38
253,463	-78,73
253,838	-77,08
254,212	-73,76
254,587	-71,01
254,961	-64,78
255,335	-57,4
255,71	-49,7
256,084	-41,14
256,458	-34,82
256,832	-30,35
257,206	-27,7
257,581	-25,72
257,955	-24,55
258,329	-23,78
258,703	-22,73
259,077	-21,79
259,451	-20,74
259,825	-20,5
260,199	-21,1
260,572	-20,88
260,946	-20,64
261,32	-20,25
261,694	-19,63
262,068	-19,47
262,441	-19
262,815	-18,7
263,189	-18,44
263,562	-18,63
263,936	-19,86
264,309	-21,75
264,683	-23,78
265,056	-24,85
265,43	-25,22
265,803	-25,15
266,176	-24,95
266,55	-24,6
266,923	-24,22
267,296	-23,94
267,67	-23,1
268,043	-22,14
268,416	-21,13
268,789	-20,19
269,162	-19,04
269,535	-17,98
269,908	-17,26
270,281	-17,12
270,654	-17,51
271,027	-17,98
271,4	-18,36
271,773	-18,49
272,146	-18,36
272,519	-18,31
272,891	-18,33
273,264	-18,63
273,637	-18,77
274,01	-18,5
274,382	-18,77
274,755	-18,84
275,127	-18,87
275,5	-18,93
275,872	-18,8
276,245	-18,93
276,617	-19,29
276,99	-19,6
277,362	-20,11
277,734	-20,28
278,107	-20,4
278,479	-20,09
278,851	-19,9
279,223	-19,51
279,596	-19,03
279,968	-18,93
280,34	-18,62
280,712	-18,23
281,084	-17,3
281,456	-16,38
281,828	-15,7
282,2	-14,71
282,572	-13,93
282,944	-13,31
283,315	-12,96
283,687	-12,7
284,059	-12,43
284,431	-12,16
284,802	-11,84
285,174	-11,53
285,546	-11,19
285,917	-10,58
286,289	-10,01
286,66	-9,74
287,032	-9,62
287,403	-9,63
287,775	-9,43
288,146	-9,24
288,518	-9,07
288,889	-8,85
289,26	-8,75
289,632	-8,83
290,003	-9,14
290,374	-9,38
290,745	-9,38
291,116	-9,44
291,487	-9,53
291,858	-9,59
292,229	-9,61
292,6	-9,7
292,971	-9,53
293,342	-9,34
293,713	-9,14
294,084	-9,06
294,455	-8,76
294,826	-8,54
295,196	-8,43
295,567	-8,64
295,938	-8,77
296,308	-8,78
296,679	-8,81
297,05	-8,8
297,42	-8,67
297,791	-8,26
298,161	-7,98
298,532	-7,88
298,902	-7,72
299,272	-7,47
299,643	-7,24
300,013	-6,88
300,383	-6,62
300,754	-6,6
301,124	-6,68
301,494	-6,88
301,864	-6,93
302,234	-6,9
302,604	-6,75
302,974	-6,53
303,344	-6,1
303,714	-5,86
304,084	-5,68
304,454	-5,66
304,824	-5,68
305,194	-5,73
305,563	-5,74
305,933	-5,61
306,303	-5,38
306,673	-5,06
307,042	-4,67
307,412	-4,4
307,781	-4,19
308,151	-4,03
308,521	-3,87
308,89	-3,67
309,259	-3,67
309,629	-3,65
309,998	-3,62
310,368	-3,53
310,737	-3,42
311,106	-3,44
311,475	-3,42
311,845	-3,38
312,214	-3,26
312,583	-3,12
312,952	-3,01
313,321	-2,88
313,69	-2,66
314,059	-2,56
314,428	-2,57
314,797	-2,72
315,166	-2,98
315,535	-3,3
315,904	-3,67
316,272	-3,86
316,641	-4
317,01	-3,86
317,379	-3,79
317,747	-3,67
318,116	-3,63
318,484	-3,63
318,853	-3,67
319,221	-3,72
319,59	-3,9
319,958	-3,87
320,327	-3,82
320,695	-3,86
321,063	-3,89
321,432	-4
321,8	-3,99
322,168	-4
322,536	-4,11
322,905	-3,78
323,273	-3,38
323,641	-2,95
324,009	-2,57
324,377	-2,32
324,745	-2,22
325,113	-2,06
325,481	-1,88
325,849	-1,72
326,216	-1,57
326,584	-1,33
326,952	-1,13
327,32	-0,85
327,687	-0,64
328,055	-0,46
328,423	-0,27
328,79	-0,22
329,158	-0,24
329,525	-0,21
329,893	-0,08
330,26	0,21
330,628	0,19
330,995	0,18
331,362	0,13
331,73	0,07
332,097	0,09
332,464	0,22
332,831	0,35
333,199	0,3
333,566	0,26
333,933	0,24
334,3	0,24
334,667	0,26
335,034	0,3
335,401	0,25
335,768	0,24
336,135	0,37
336,502	0,52
336,868	0,75
337,235	0,91
337,602	1,03
337,969	1,12
338,335	1,29
338,702	1,47
339,069	1,62
339,435	1,73
339,802	1,86
340,168	1,86
340,535	1,85
340,901	1,84
341,267	1,87
341,634	2,04
342	2,11
342,366	2,22
342,733	2,25
343,099	2,34
343,465	2,35
343,831	2,31
344,197	2,32
344,563	2,29
344,929	2,2
345,295	2,23
345,661	2,22
346,027	2,19
346,393	2,08
346,759	2,05
347,125	2
347,491	1,96
347,856	1,99
348,222	2
348,588	2,11
348,953	2,19
349,319	2,12
349,684	2,13
350,05	2,14
350,415	2,25
350,781	2,31
351,146	2,4
351,512	2,45
351,877	2,46
352,242	2,51
352,608	2,63
352,973	2,73
353,338	2,86
353,703	3,01
354,068	3,09
354,433	3,15
354,798	3,2
355,164	3,25
355,528	3,31
355,893	3,35
356,258	3,35
356,623	3,42
356,988	3,55
357,353	3,61
357,718	3,67
358,082	3,67
358,447	3,67
358,812	3,76
359,176	3,82
359,541	3,91
359,905	3,95
360,27	3,95
360,634	3,92
360,999	3,91
361,363	3,9
361,728	3,93
362,092	3,97
362,456	4
362,821	4,03
363,185	4,1
363,549	4,19
363,913	4,27
364,277	4,33
364,641	4,32
365,005	4,37
365,369	4,41
365,733	4,48
366,097	4,53
366,461	4,55
366,825	4,61
367,189	4,68
367,553	4,78
367,916	4,9
368,28	5,02
368,644	5,11
369,007	5,2
369,371	5,33
369,734	5,43
370,098	5,54
370,461	5,62
370,825	5,67
371,188	5,72
371,552	5,76
371,915	5,81
372,278	5,94
372,642	6,06
373,005	6,19
373,368	6,31
373,731	6,43
374,094	6,53
374,457	6,6
374,82	6,66
375,183	6,7
375,546	6,76
375,909	6,82
376,272	6,89
376,635	6,96
376,998	6,98
377,361	7,01
377,723	7,08
378,086	7,16
378,449	7,23
378,811	7,3
379,174	7,41
379,537	7,46
379,899	7,46
380,262	7,47
380,624	7,47
380,987	7,51
381,349	7,56
381,711	7,6
382,074	7,69
382,436	7,78
382,798	7,89
383,16	7,9
383,522	7,93
383,884	7,96
384,247	7,98
384,609	8,03
384,971	8,07
385,333	8,09
385,695	8,1
386,056	8,1
386,418	8,1
386,78	8,09
387,142	8,12
387,504	8,15
387,865	8,21
388,227	8,23
388,589	8,22
388,95	8,23
389,312	8,21
389,673	8,22
390,035	8,21
390,396	8,19
390,758	8,22
391,119	8,24
391,48	8,26
391,842	8,28
392,203	8,29
392,564	8,32
392,925	8,37
393,286	8,39
393,648	8,42
394,009	8,44
394,37	8,46
394,731	8,48
395,092	8,53
395,452	8,53
395,813	8,57
396,174	8,61
396,535	8,62
396,896	8,64
397,257	8,67
397,617	8,69
397,978	8,71
398,338	8,75
398,699	8,81
399,06	8,88
399,42	8,9
399,781	8,9
400,141	8,9
400,501	8,89
400,862	8,91
401,222	8,91
401,582	8,92
401,943	8,94
402,303	8,95
402,663	8,95
403,023	8,95
403,383	8,95
403,743	8,93
404,103	8,95
404,463	8,97
404,823	8,99
405,183	9
405,543	9,01
405,903	8,99
406,262	8,97
406,622	8,91
406,982	8,89
407,342	8,93
407,701	8,95
408,061	8,97
408,42	8,99
408,78	9,01
409,139	9,02
409,499	9,04
409,858	9,07
410,217	9,09
410,577	9,09
410,936	9,11
411,295	9,11
411,655	9,1
412,014	9,08
412,373	9,04
412,732	9,02
413,091	8,97
413,45	8,94
413,809	8,92
414,168	8,9
414,527	8,86
414,886	8,79
415,245	8,75
415,603	8,71
415,962	8,66
416,321	8,64
416,679	8,6
417,038	8,56
417,397	8,51
417,755	8,47
418,114	8,43
418,472	8,42
418,831	8,4
419,189	8,38
419,547	8,37
419,906	8,37
420,264	8,35
420,622	8,34
420,981	8,34
421,339	8,33
421,697	8,32
422,055	8,34
422,413	8,36
422,771	8,38
423,129	8,4
423,487	8,42
423,845	8,44
424,203	8,48
424,56	8,5
424,918	8,55
425,276	8,58
425,634	8,62
425,991	8,65
426,349	8,69
426,707	8,72
427,064	8,77
427,422	8,79
427,779	8,83
428,137	8,9
428,494	8,95
428,851	9
429,209	9,01
429,566	9,03
429,923	9,05
430,28	9,05
430,637	9,07
430,995	9,06
431,352	9,04
431,709	9,02
432,066	9,04
432,423	9,03
432,78	9,02
433,137	9,02
433,493	9
433,85	9,01
434,207	9
434,564	8,97
434,92	8,98
435,277	8,97
435,634	8,97
435,99	8,93
436,347	8,92
436,703	8,94
437,06	8,92
437,416	8,91
437,773	8,9
438,129	8,87
438,485	8,87
438,841	8,87
439,198	8,88
439,554	8,88
439,91	8,87
440,266	8,87
440,622	8,88
440,978	8,89
441,334	8,88
441,69	8,87
442,046	8,89
442,402	8,87
442,758	8,88
443,113	8,86
443,469	8,87
443,825	8,88
444,181	8,87
444,536	8,89
444,892	8,89
445,247	8,91
445,603	8,93
445,958	8,94
446,314	8,96
446,669	8,96
447,025	8,96
447,38	8,98
447,735	8,99
448,09	8,99
448,446	9,02
448,801	9,03
449,156	9,05
449,511	9,07
449,866	9,1
450,221	9,11
450,576	9,15
450,931	9,21
451,286	9,24
451,641	9,28
451,995	9,29
452,35	9,33
452,705	9,35
453,06	9,36
453,414	9,37
453,769	9,38
454,123	9,4
454,478	9,4
454,832	9,39
455,187	9,39
455,541	9,37
455,896	9,35
456,25	9,34
456,604	9,32
456,958	9,31
457,313	9,29
457,667	9,27
458,021	9,27
458,375	9,27
458,729	9,28
459,083	9,31
459,437	9,32
459,791	9,32
460,145	9,32
460,499	9,31
460,852	9,31
461,206	9,31
461,56	9,3
461,914	9,32
462,267	9,34
462,621	9,35
462,974	9,37
463,328	9,38
463,681	9,4
464,035	9,43
464,388	9,46
464,742	9,49
465,095	9,52
465,448	9,52
465,801	9,53
466,155	9,5
466,508	9,49
466,861	9,5
467,214	9,47
467,567	9,47
467,92	9,49
468,273	9,49
468,626	9,49
468,979	9,49
469,332	9,49
469,684	9,48
470,037	9,48
470,39	9,48
470,743	9,5
471,095	9,5
471,448	9,5
471,8	9,5
472,153	9,52
472,505	9,52
472,858	9,53
473,21	9,53
473,562	9,56
473,915	9,57
474,267	9,56
474,619	9,59
474,971	9,58
475,324	9,57
475,676	9,59
476,028	9,6
476,38	9,62
476,732	9,63
477,084	9,63
477,436	9,63
477,787	9,63
478,139	9,62
478,491	9,62
478,843	9,61
479,195	9,59
479,546	9,56
479,898	9,54
480,249	9,52
480,601	9,5
480,952	9,46
481,304	9,45
481,655	9,43
482,007	9,41
482,358	9,4
482,709	9,39
483,061	9,37
483,412	9,37
483,763	9,36
484,114	9,36
484,465	9,35
484,816	9,35
485,167	9,34
485,518	9,34
485,869	9,35
486,22	9,34
486,571	9,35
486,922	9,35
487,272	9,36
487,623	9,37
487,974	9,38
488,324	9,37
488,675	9,38
489,025	9,39
489,376	9,4
489,726	9,41
490,077	9,42
490,427	9,44
490,778	9,45
491,128	9,46
491,478	9,47
491,828	9,49
492,179	9,49
492,529	9,52
492,879	9,53
493,229	9,55
493,579	9,58
493,929	9,58
494,279	9,6
494,629	9,6
494,979	9,62
495,328	9,64
495,678	9,68
496,028	9,71
496,378	9,76
496,727	9,79
497,077	9,83
497,426	9,85
497,776	9,84
498,125	9,84
498,475	9,86
498,824	9,86
499,174	9,87
499,523	9,89
499,872	9,89
500,221	9,9
500,571	9,91
500,92	9,92
501,269	9,95
501,618	9,94
501,967	9,96
502,316	9,95
502,665	9,96
503,014	9,95
503,363	9,95
503,711	9,93
504,06	9,94
504,409	9,95
504,758	9,94
505,106	9,97
505,455	9,97
505,803	9,98
506,152	9,97
506,5	9,97
506,849	9,97
507,197	9,97
507,546	9,98
507,894	9,99
508,242	9,99
508,59	9,97
508,939	9,99
509,287	10,01
509,635	10,02
509,983	10,02
510,331	10,05
510,679	10,07
511,027	10,08
511,375	10,07
511,723	10,07
512,07	10,09
512,418	10,1
512,766	10,12
513,114	10,13
513,461	10,15
513,809	10,15
514,156	10,15
514,504	10,15
514,851	10,13
515,199	10,12
515,546	10,11
515,893	10,11
516,241	10,12
516,588	10,11
516,935	10,12
517,282	10,12
517,63	10,12
517,977	10,13
518,324	10,13
518,671	10,14
519,018	10,14
519,365	10,14
519,711	10,14
520,058	10,15
520,405	10,16
520,752	10,16
521,099	10,18
521,445	10,21
521,792	10,22
522,138	10,23
522,485	10,22
522,832	10,25
523,178	10,26
523,524	10,24
523,871	10,26
524,217	10,27
524,563	10,28
524,91	10,26
525,256	10,24
525,602	10,23
525,948	10,21
526,294	10,19
526,64	10,17
526,986	10,16
527,332	10,14
527,678	10,13
528,024	10,13
528,37	10,13
528,716	10,11
529,061	10,12
529,407	10,13
529,753	10,14
530,098	10,13
530,444	10,12
530,789	10,13
531,135	10,11
531,48	10,1
531,826	10,09
532,171	10,09
532,516	10,1
532,862	10,12
533,207	10,14
533,552	10,17
533,897	10,2
534,242	10,2
534,587	10,22
534,932	10,24
535,277	10,25
535,622	10,26
535,967	10,28
536,312	10,27
536,657	10,3
537,001	10,31
537,346	10,33
537,691	10,36
538,035	10,36
538,38	10,37
538,724	10,38
539,069	10,39
539,413	10,38
539,758	10,38
540,102	10,37
540,446	10,36
540,791	10,35
541,135	10,35
541,479	10,37
541,823	10,38
542,167	10,37
542,512	10,38
542,856	10,37
543,2	10,36
543,543	10,38
543,887	10,37
544,231	10,37
544,575	10,37
544,919	10,37
545,262	10,39
545,606	10,4
545,95	10,41
546,293	10,42
546,637	10,45
546,98	10,48
547,324	10,49
547,667	10,55
548,011	10,56
548,354	10,56
548,697	10,55
549,04	10,56
549,384	10,58
549,727	10,57
550,07	10,59
550,413	10,59
550,756	10,59
551,099	10,59
551,442	10,59
551,785	10,6
552,128	10,61
552,47	10,6
552,813	10,59
553,156	10,6
553,499	10,6
553,841	10,6
554,184	10,59
554,526	10,57
554,869	10,53
555,211	10,52
555,554	10,51
555,896	10,5
556,238	10,48
556,581	10,45
556,923	10,43
557,265	10,41
557,607	10,39
557,949	10,38
558,291	10,37
558,633	10,37
558,975	10,36
559,317	10,36
559,659	10,34
560,001	10,33
560,343	10,29
560,685	10,27
561,026	10,27
561,368	10,25
561,71	10,22
562,051	10,21
562,393	10,21
562,734	10,19
563,076	10,19
563,417	10,17
563,759	10,18
564,1	10,18
564,441	10,18
564,782	10,15
565,124	10,13
565,465	10,12
565,806	10,11
566,147	10,1
566,488	10,06
566,829	10,05
567,17	10,04
567,511	10,03
567,851	10,03
568,192	10
568,533	9,98
568,874	10,01
569,214	9,99
569,555	9,96
569,895	9,93
570,236	9,91
570,576	9,9
570,917	9,88
571,257	9,87
571,598	9,87
571,938	9,88
572,278	9,9
572,618	9,89
572,959	9,87
573,299	9,88
573,639	9,89
573,979	9,87
574,319	9,86
574,659	9,87
574,999	9,87
575,339	9,88
575,678	9,89
576,018	9,86
576,358	9,85
576,698	9,85
577,037	9,87
577,377	9,87
577,716	9,86
578,056	9,86
578,395	9,85
578,735	9,83
579,074	9,83
579,413	9,81
579,753	9,78
580,092	9,77
580,431	9,74
580,77	9,73
581,109	9,75
581,448	9,74
581,787	9,71
582,126	9,68
582,465	9,67
582,804	9,65
583,143	9,67
583,482	9,65
583,82	9,67
584,159	9,65
584,498	9,65
584,836	9,65
585,175	9,64
585,514	9,63
585,852	9,65
586,19	9,64
586,529	9,64
586,867	9,65
587,205	9,64
587,544	9,65
587,882	9,66
588,22	9,67
588,558	9,69
588,896	9,7
589,234	9,71
589,572	9,7
589,91	9,69
590,248	9,68
590,586	9,71
590,924	9,69
591,262	9,68
591,599	9,68
591,937	9,69
592,275	9,71
592,612	9,72
592,95	9,73
593,287	9,76
593,625	9,77
593,962	9,77
594,299	9,82
594,637	9,85
594,974	9,87
595,311	9,88
595,648	9,86
595,985	9,88
596,322	9,9
596,659	9,92
596,996	9,95
597,333	9,93
597,67	9,92
598,007	9,94
598,344	9,96
598,681	9,98
599,017	9,99
599,354	9,98
599,691	10
600,027	9,99
600,364	9,98
600,7	10,01
601,037	10,07
601,373	10,08
601,71	10,07
602,046	10,08
602,382	10,08
602,718	10,09
603,054	10,09
603,391	10,09
603,727	10,08
604,063	10,08
604,399	10,11
604,735	10,13
605,071	10,14
605,406	10,15
605,742	10,17
606,078	10,17
606,414	10,2
606,749	10,2
607,085	10,22
607,421	10,23
607,756	10,21
608,092	10,19
608,427	10,16
608,762	10,15
609,098	10,13
609,433	10,13
609,768	10,14
610,104	10,15
610,439	10,17
610,774	10,18
611,109	10,16
611,444	10,13
611,779	10,12
612,114	10,11
612,449	10,11
612,784	10,07
613,118	10,04
613,453	10,01
613,788	9,99
614,123	9,97
614,457	9,95
614,792	9,94
615,126	9,92
615,461	9,93
615,795	9,93
616,13	9,93
616,464	9,95
616,798	9,92
617,132	9,92
617,467	9,91
617,801	9,9
618,135	9,89
618,469	9,91
618,803	9,93
619,137	9,94
619,471	9,95
619,805	9,99
620,139	10,05
620,472	10,07
620,806	10,07
621,14	10,07
621,473	10,08
621,807	10,08
622,141	10,08
622,474	10,06
622,808	10,05
623,141	10,03
623,474	10,03
623,808	10,06
624,141	10,07
624,474	10,09
624,807	10,09
625,141	10,1
625,474	10,11
625,807	10,12
626,14	10,11
626,473	10,12
626,806	10,11
627,138	10,08
627,471	10,07
627,804	10,09
628,137	10,1
628,469	10,1
628,802	10,13
629,135	10,12
629,467	10,14
629,8	10,16
630,132	10,17
630,465	10,19
630,797	10,19
631,129	10,18
631,461	10,2
631,794	10,23
632,126	10,27
632,458	10,29
632,79	10,3
633,122	10,31
633,454	10,29
633,786	10,28
634,118	10,28
634,45	10,3
634,781	10,3
635,113	10,32
635,445	10,32
635,777	10,31
636,108	10,32
636,44	10,34
636,771	10,36
637,103	10,39
637,434	10,39
637,765	10,39
638,097	10,37
638,428	10,35
638,759	10,35
639,09	10,31
639,422	10,28
639,753	10,28
640,084	10,27
640,415	10,27
640,746	10,28
641,077	10,31
641,407	10,32
641,738	10,32
642,069	10,31
642,4	10,32
642,73	10,32
643,061	10,32
643,392	10,32
643,722	10,3
644,053	10,3
644,383	10,27
644,713	10,27
645,044	10,31
645,374	10,32
645,704	10,3
646,034	10,31
646,365	10,3
646,695	10,3
647,025	10,33
647,355	10,32
647,685	10,36
648,015	10,37
648,344	10,36
648,674	10,34
649,004	10,31
649,334	10,3
649,663	10,33
649,993	10,37
650,323	10,37
650,652	10,37
650,982	10,38
651,311	10,38
651,64	10,35
651,97	10,36
652,299	10,34
652,628	10,37
652,958	10,39
653,287	10,43
653,616	10,41
653,945	10,4
654,274	10,42
654,603	10,38
654,932	10,35
655,261	10,4
655,589	10,49
655,918	10,55
656,247	10,6
656,576	10,59
656,904	10,61
657,233	10,65
657,561	10,7
657,89	10,75
658,218	10,82
658,547	10,88
658,875	10,86
659,203	10,9
659,532	10,91
