Data from zc74051_1_Reflection_00002.txt Node
Date: Thu Mar 12 15:03:27 ART 2020
User: Ana
Spectrometer: USB2E3644
Trigger mode: 4
Integration Time (sec): 5,000000E-2
Scans to average: 10
Electric dark correction enabled: true
Nonlinearity correction enabled: false
Boxcar width: 10
XAxis mode: Wavelengths
Number of Pixels in Spectrum: 2048
>>>>>Begin Spectral Data<<<<<
178,315	113
178,696	120,27
179,076	137,58
179,457	144,14
179,838	132,69
180,218	133,33
180,599	-91,67
180,979	121,05
181,36	76,67
181,74	48,48
182,121	52,22
182,501	87,65
182,881	90,3
183,262	88,68
183,642	88,95
184,022	90,13
184,402	90,78
184,783	90,63
185,163	89,97
185,543	88
185,923	88,35
186,303	89,46
186,683	91,14
187,063	91,85
187,443	92,89
187,823	92,69
188,203	92,84
188,583	94,83
188,963	95,68
189,343	95,73
189,723	97,56
190,102	98,12
190,482	97,25
190,862	96,4
191,242	98,13
191,621	100,8
192,001	102,78
192,38	104,11
192,76	105,66
193,14	106,37
193,519	107,19
193,898	106,81
194,278	105,86
194,657	105,27
195,037	106,17
195,416	106,41
195,795	106,13
196,175	106,52
196,554	106,2
196,933	106,09
197,312	107,58
197,692	108,67
198,071	110,57
198,45	112,45
198,829	113,07
199,208	112,4
199,587	111,49
199,966	111,04
200,345	109,84
200,724	108,76
201,103	108,11
201,482	108,32
201,86	109,16
202,239	109,54
202,618	110,19
202,997	110,44
203,375	110,05
203,754	110,23
204,133	109,88
204,511	109,19
204,89	108,4
205,269	106,8
205,647	105,58
206,026	104,42
206,404	104,33
206,782	104,28
207,161	104,19
207,539	104,17
207,918	103,95
208,296	104,52
208,674	104,91
209,052	105,6
209,431	105,92
209,809	106,18
210,187	106,71
210,565	106,83
210,943	106,17
211,321	106,17
211,699	106,02
212,077	105,95
212,455	106,74
212,833	107,58
213,211	107,98
213,589	108,1
213,967	108,59
214,345	107,95
214,722	107,92
215,1	108,31
215,478	108,45
215,855	108,48
216,233	107,86
216,611	107,45
216,988	107,26
217,366	106,78
217,743	106,42
218,121	105,7
218,498	104,69
218,876	103,89
219,253	102,99
219,631	101,73
220,008	101,06
220,385	100,32
220,762	100,41
221,14	101,16
221,517	101,8
221,894	101,88
222,271	102,34
222,648	103,27
223,025	103,22
223,402	103,3
223,78	102,72
224,157	102,42
224,533	103,04
224,91	104,31
225,287	105,79
225,664	106,76
226,041	108,23
226,418	109,79
226,795	110,94
227,171	111,93
227,548	113,79
227,925	114,98
228,301	115,21
228,678	114,04
229,055	113,34
229,431	113,96
229,808	114,77
230,184	115,08
230,561	115,29
230,937	115,85
231,313	116,01
231,69	117,92
232,066	120,94
232,442	122,76
232,819	123,52
233,195	123,6
233,571	123,98
233,947	123,42
234,323	123,55
234,699	125,21
235,075	127,34
235,451	130,14
235,827	133,21
236,203	136,95
236,579	142,47
236,955	147,82
237,331	152,34
237,707	158,07
238,083	166,21
238,459	176,31
238,834	191,82
239,21	214,54
239,586	239,75
239,961	260,97
240,337	277,74
240,713	289,16
241,088	302,51
241,464	315,8
241,839	334,07
242,215	363,98
242,59	445,19
242,965	784,55
243,341	-4191,94
243,716	-518,27
244,091	-298,04
244,467	-223,75
244,842	-183,57
245,217	-156,02
245,592	-142,36
245,967	-140,03
246,343	-135,96
246,718	-133,69
247,093	-137,28
247,468	-142,53
247,843	-142,32
248,218	-136,22
248,593	-124,79
248,967	-114,05
249,342	-107,91
249,717	-104,52
250,092	-102,54
250,467	-104,59
250,841	-113,27
251,216	-132,25
251,591	-163,23
251,965	-199,2
252,34	-235,32
252,714	-280,93
253,089	-339,62
253,463	-386,18
253,838	-387,35
254,212	-375,71
254,587	-341,11
254,961	-274,74
255,335	-213,51
255,71	-163,75
256,084	-118,25
256,458	-89,65
256,832	-73,84
257,206	-65,18
257,581	-60,56
257,955	-57,8
258,329	-55,16
258,703	-52,25
259,077	-49,82
259,451	-47,61
259,825	-46,46
260,199	-46,09
260,572	-45,08
260,946	-44,63
261,32	-44,09
261,694	-43,06
262,068	-42,47
262,441	-41,77
262,815	-41,6
263,189	-40,96
263,562	-41,13
263,936	-43,98
264,309	-49,28
264,683	-55,17
265,056	-58,5
265,43	-59,61
265,803	-59
266,176	-57,67
266,55	-56,95
266,923	-56,27
267,296	-54,99
267,67	-52,53
268,043	-50,3
268,416	-47,46
268,789	-44,1
269,162	-41,01
269,535	-38,85
269,908	-37,18
270,281	-36,16
270,654	-36,17
271,027	-37,24
271,4	-37,89
271,773	-38,04
272,146	-37,93
272,519	-37,82
272,891	-37,92
273,264	-38,09
273,637	-38,08
274,01	-38,04
274,382	-38,7
274,755	-39,02
275,127	-39,43
275,5	-39,66
275,872	-39,36
276,245	-39,6
276,617	-40,57
276,99	-41,72
277,362	-42,71
277,734	-43,02
278,107	-42,75
278,479	-41,62
278,851	-40,08
279,223	-39,07
279,596	-38,16
279,968	-37,55
280,34	-36,71
280,712	-35,76
281,084	-34,36
281,456	-32,98
281,828	-31,48
282,2	-29,13
282,572	-27,22
282,944	-25,77
283,315	-25,16
283,687	-24,84
284,059	-24,61
284,431	-24,23
284,802	-23,54
285,174	-22,93
285,546	-22,44
285,917	-21,79
286,289	-21,26
286,66	-20,87
287,032	-20,38
287,403	-20,14
287,775	-20,09
288,146	-20,32
288,518	-20,49
288,889	-20,4
289,26	-20,51
289,632	-20,9
290,003	-21,63
290,374	-22,21
290,745	-22,57
291,116	-22,46
291,487	-22,36
291,858	-22,26
292,229	-22,15
292,6	-21,9
292,971	-21,21
293,342	-20,58
293,713	-19,93
294,084	-19,3
294,455	-18,67
294,826	-18,43
295,196	-18,42
295,567	-18,55
295,938	-18,18
296,308	-17,89
296,679	-17,89
297,05	-17,8
297,42	-17,51
297,791	-17,04
298,161	-16,79
298,532	-16,38
298,902	-16,09
299,272	-15,72
299,643	-15,37
300,013	-14,9
300,383	-14,61
300,754	-14,67
301,124	-14,85
301,494	-15,15
301,864	-15,48
302,234	-15,8
302,604	-15,94
302,974	-15,72
303,344	-15,23
303,714	-15,01
304,084	-14,75
304,454	-14,54
304,824	-14,29
305,194	-14,26
305,563	-14,26
305,933	-13,99
306,303	-13,71
306,673	-13,28
307,042	-12,82
307,412	-12,2
307,781	-11,61
308,151	-11,25
308,521	-10,95
308,89	-10,6
309,259	-10,48
309,629	-10,37
309,998	-10,2
310,368	-9,99
310,737	-9,75
311,106	-9,58
311,475	-9,4
311,845	-9,37
312,214	-9,27
312,583	-9,22
312,952	-9,17
313,321	-9,09
313,69	-8,87
314,059	-8,85
314,428	-8,97
314,797	-9,22
315,166	-9,69
315,535	-10,35
315,904	-10,93
316,272	-11,23
316,641	-11,43
317,01	-11,48
317,379	-11,5
317,747	-11,35
318,116	-11
318,484	-10,86
318,853	-10,8
319,221	-10,82
319,59	-10,79
319,958	-10,71
320,327	-10,48
320,695	-10,18
321,063	-9,76
321,432	-9,43
321,8	-8,92
322,168	-8,58
322,536	-8,39
322,905	-7,87
323,273	-7,28
323,641	-6,75
324,009	-6,41
324,377	-6,25
324,745	-6,03
325,113	-5,67
325,481	-5,39
325,849	-5,3
326,216	-5,16
326,584	-4,95
326,952	-4,67
327,32	-4,27
327,687	-3,95
328,055	-3,63
328,423	-3,41
328,79	-3,44
329,158	-3,59
329,525	-3,82
329,893	-3,82
330,26	-3,72
330,628	-3,76
330,995	-3,75
331,362	-3,74
331,73	-3,79
332,097	-3,67
332,464	-3,5
332,831	-3,32
333,199	-3,21
333,566	-3,01
333,933	-2,78
334,3	-2,51
334,667	-2,33
335,034	-2,27
335,401	-2,2
335,768	-2,13
336,135	-2,01
336,502	-1,87
336,868	-1,7
337,235	-1,5
337,602	-1,37
337,969	-1,14
338,335	-0,92
338,702	-0,68
339,069	-0,55
339,435	-0,38
339,802	-0,25
340,168	-0,2
340,535	-0,19
340,901	-0,25
341,267	-0,32
341,634	-0,29
342	-0,3
342,366	-0,21
342,733	-0,23
343,099	-0,19
343,465	-0,19
343,831	-0,16
344,197	-0,08
344,563	-0,04
344,929	-0,02
345,295	0,08
345,661	0,2
346,027	0,34
346,393	0,39
346,759	0,54
347,125	0,63
347,491	0,7
347,856	0,75
348,222	0,77
348,588	0,92
348,953	1,11
349,319	1,13
349,684	1,19
350,05	1,18
350,415	1,3
350,781	1,44
351,146	1,64
351,512	1,81
351,877	1,92
352,242	2,05
352,608	2,21
352,973	2,38
353,338	2,5
353,703	2,6
354,068	2,67
354,433	2,72
354,798	2,81
355,164	2,88
355,528	2,99
355,893	3,1
356,258	3,14
356,623	3,25
356,988	3,45
357,353	3,59
357,718	3,76
358,082	3,9
358,447	3,98
358,812	4,05
359,176	4,06
359,541	4,14
359,905	4,24
360,27	4,27
360,634	4,3
360,999	4,36
361,363	4,39
361,728	4,45
362,092	4,5
362,456	4,57
362,821	4,7
363,185	4,81
363,549	4,92
363,913	4,99
364,277	5,01
364,641	4,99
365,005	5,03
365,369	5,08
365,733	5,14
366,097	5,21
366,461	5,26
366,825	5,37
367,189	5,43
367,553	5,51
367,916	5,69
368,28	5,8
368,644	5,83
369,007	5,92
369,371	6,08
369,734	6,21
370,098	6,28
370,461	6,36
370,825	6,4
371,188	6,45
371,552	6,51
371,915	6,57
372,278	6,72
372,642	6,83
373,005	6,95
373,368	7,09
373,731	7,21
374,094	7,35
374,457	7,48
374,82	7,62
375,183	7,7
375,546	7,73
375,909	7,77
376,272	7,88
376,635	7,97
376,998	8,02
377,361	8,08
377,723	8,21
378,086	8,28
378,449	8,34
378,811	8,42
379,174	8,56
379,537	8,67
379,899	8,7
380,262	8,74
380,624	8,77
380,987	8,81
381,349	8,86
381,711	8,91
382,074	8,95
382,436	9,02
382,798	9,13
383,16	9,2
383,522	9,28
383,884	9,32
384,247	9,36
384,609	9,42
384,971	9,45
385,333	9,44
385,695	9,46
386,056	9,53
386,418	9,56
386,78	9,59
387,142	9,6
387,504	9,64
387,865	9,71
388,227	9,77
388,589	9,81
388,95	9,85
389,312	9,85
389,673	9,88
390,035	9,86
390,396	9,85
390,758	9,87
391,119	9,86
391,48	9,91
391,842	9,93
392,203	9,94
392,564	9,99
392,925	10,05
393,286	10,09
393,648	10,13
394,009	10,19
394,37	10,21
394,731	10,26
395,092	10,29
395,452	10,3
395,813	10,3
396,174	10,33
396,535	10,35
396,896	10,36
397,257	10,39
397,617	10,45
397,978	10,49
398,338	10,53
398,699	10,61
399,06	10,67
399,42	10,7
399,781	10,73
400,141	10,75
400,501	10,75
400,862	10,74
401,222	10,73
401,582	10,71
401,943	10,7
402,303	10,7
402,663	10,71
403,023	10,73
403,383	10,77
403,743	10,76
404,103	10,77
404,463	10,81
404,823	10,86
405,183	10,9
405,543	10,92
405,903	10,92
406,262	10,92
406,622	10,87
406,982	10,87
407,342	10,91
407,701	10,93
408,061	10,97
408,42	11
408,78	11,04
409,139	11,06
409,499	11,09
409,858	11,12
410,217	11,19
410,577	11,2
410,936	11,18
411,295	11,2
411,655	11,19
412,014	11,15
412,373	11,11
412,732	11,07
413,091	11,02
413,45	10,96
413,809	10,92
414,168	10,88
414,527	10,85
414,886	10,8
415,245	10,74
415,603	10,68
415,962	10,65
416,321	10,6
416,679	10,58
417,038	10,53
417,397	10,5
417,755	10,43
418,114	10,4
418,472	10,37
418,831	10,37
419,189	10,37
419,547	10,35
419,906	10,34
420,264	10,32
420,622	10,3
420,981	10,31
421,339	10,3
421,697	10,3
422,055	10,31
422,413	10,31
422,771	10,34
423,129	10,38
423,487	10,39
423,845	10,42
424,203	10,44
424,56	10,47
424,918	10,5
425,276	10,54
425,634	10,56
425,991	10,6
426,349	10,62
426,707	10,64
427,064	10,69
427,422	10,71
427,779	10,73
428,137	10,79
428,494	10,84
428,851	10,91
429,209	10,91
429,566	10,92
429,923	10,91
430,28	10,86
430,637	10,84
430,995	10,83
431,352	10,81
431,709	10,78
432,066	10,8
432,423	10,81
432,78	10,81
433,137	10,82
433,493	10,81
433,85	10,84
434,207	10,83
434,564	10,81
434,92	10,82
435,277	10,83
435,634	10,81
435,99	10,79
436,347	10,78
436,703	10,81
437,06	10,8
437,416	10,8
437,773	10,83
438,129	10,82
438,485	10,83
438,841	10,82
439,198	10,84
439,554	10,83
439,91	10,83
440,266	10,85
440,622	10,86
440,978	10,86
441,334	10,8
441,69	10,8
442,046	10,81
442,402	10,8
442,758	10,79
443,113	10,77
443,469	10,76
443,825	10,75
444,181	10,76
444,536	10,77
444,892	10,78
445,247	10,8
445,603	10,81
445,958	10,83
446,314	10,85
446,669	10,86
447,025	10,87
447,38	10,9
447,735	10,9
448,09	10,9
448,446	10,93
448,801	10,96
449,156	10,97
449,511	10,98
449,866	11,02
450,221	11,07
450,576	11,12
450,931	11,19
451,286	11,21
451,641	11,23
451,995	11,28
452,35	11,32
452,705	11,31
453,06	11,32
453,414	11,34
453,769	11,36
454,123	11,37
454,478	11,36
454,832	11,33
455,187	11,31
455,541	11,27
455,896	11,25
456,25	11,22
456,604	11,2
456,958	11,19
457,313	11,16
457,667	11,13
458,021	11,14
458,375	11,13
458,729	11,15
459,083	11,16
459,437	11,17
459,791	11,16
460,145	11,19
460,499	11,18
460,852	11,17
461,206	11,17
461,56	11,17
461,914	11,18
462,267	11,19
462,621	11,2
462,974	11,24
463,328	11,25
463,681	11,28
464,035	11,32
464,388	11,34
464,742	11,37
465,095	11,4
465,448	11,41
465,801	11,41
466,155	11,39
466,508	11,37
466,861	11,36
467,214	11,36
467,567	11,35
467,92	11,37
468,273	11,38
468,626	11,36
468,979	11,35
469,332	11,32
469,684	11,33
470,037	11,34
470,39	11,34
470,743	11,37
471,095	11,38
471,448	11,37
471,8	11,38
472,153	11,4
472,505	11,4
472,858	11,4
473,21	11,42
473,562	11,43
473,915	11,43
474,267	11,44
474,619	11,41
474,971	11,42
475,324	11,39
475,676	11,43
476,028	11,43
476,38	11,46
476,732	11,46
477,084	11,45
477,436	11,45
477,787	11,44
478,139	11,43
478,491	11,41
478,843	11,4
479,195	11,4
479,546	11,36
479,898	11,31
480,249	11,28
480,601	11,25
480,952	11,22
481,304	11,2
481,655	11,19
482,007	11,18
482,358	11,17
482,709	11,16
483,061	11,14
483,412	11,15
483,763	11,13
484,114	11,12
484,465	11,11
484,816	11,09
485,167	11,08
485,518	11,07
485,869	11,08
486,22	11,08
486,571	11,08
486,922	11,08
487,272	11,09
487,623	11,1
487,974	11,1
488,324	11,11
488,675	11,12
489,025	11,11
489,376	11,11
489,726	11,11
490,077	11,12
490,427	11,13
490,778	11,13
491,128	11,15
491,478	11,18
491,828	11,2
492,179	11,23
492,529	11,27
492,879	11,29
493,229	11,31
493,579	11,32
493,929	11,33
494,279	11,35
494,629	11,37
494,979	11,39
495,328	11,42
495,678	11,45
496,028	11,48
496,378	11,52
496,727	11,55
497,077	11,59
497,426	11,61
497,776	11,62
498,125	11,62
498,475	11,62
498,824	11,63
499,174	11,62
499,523	11,65
499,872	11,64
500,221	11,65
500,571	11,65
500,92	11,68
501,269	11,72
501,618	11,72
501,967	11,71
502,316	11,71
502,665	11,72
503,014	11,72
503,363	11,73
503,711	11,75
504,06	11,75
504,409	11,76
504,758	11,74
505,106	11,75
505,455	11,74
505,803	11,74
506,152	11,73
506,5	11,74
506,849	11,72
507,197	11,71
507,546	11,71
507,894	11,73
508,242	11,73
508,59	11,69
508,939	11,69
509,287	11,71
509,635	11,7
509,983	11,71
510,331	11,72
510,679	11,72
511,027	11,73
511,375	11,72
511,723	11,72
512,07	11,74
512,418	11,75
512,766	11,78
513,114	11,78
513,461	11,79
513,809	11,79
514,156	11,79
514,504	11,79
514,851	11,79
515,199	11,76
515,546	11,74
515,893	11,73
516,241	11,73
516,588	11,71
516,935	11,71
517,282	11,72
517,63	11,73
517,977	11,74
518,324	11,74
518,671	11,75
519,018	11,76
519,365	11,75
519,711	11,75
520,058	11,76
520,405	11,77
520,752	11,77
521,099	11,79
521,445	11,82
521,792	11,82
522,138	11,82
522,485	11,83
522,832	11,84
523,178	11,85
523,524	11,85
523,871	11,85
524,217	11,87
524,563	11,84
524,91	11,82
525,256	11,78
525,602	11,76
525,948	11,73
526,294	11,72
526,64	11,69
526,986	11,67
527,332	11,65
527,678	11,65
528,024	11,64
528,37	11,65
528,716	11,63
529,061	11,64
529,407	11,64
529,753	11,64
530,098	11,63
530,444	11,63
530,789	11,63
531,135	11,63
531,48	11,62
531,826	11,61
532,171	11,63
532,516	11,63
532,862	11,65
533,207	11,67
533,552	11,68
533,897	11,71
534,242	11,73
534,587	11,74
534,932	11,75
535,277	11,77
535,622	11,76
535,967	11,79
536,312	11,79
536,657	11,81
537,001	11,83
537,346	11,87
537,691	11,87
538,035	11,88
538,38	11,87
538,724	11,88
539,069	11,89
539,413	11,88
539,758	11,88
540,102	11,88
540,446	11,86
540,791	11,87
541,135	11,85
541,479	11,87
541,823	11,87
542,167	11,85
542,512	11,87
542,856	11,86
543,2	11,85
543,543	11,84
543,887	11,83
544,231	11,82
544,575	11,81
544,919	11,82
545,262	11,83
545,606	11,85
545,95	11,84
546,293	11,85
546,637	11,86
546,98	11,89
547,324	11,88
547,667	11,93
548,011	11,94
548,354	11,95
548,697	11,93
549,04	11,94
549,384	11,95
549,727	11,94
550,07	11,96
550,413	11,93
550,756	11,96
551,099	11,94
551,442	11,94
551,785	11,93
552,128	11,95
552,47	11,95
552,813	11,95
553,156	11,99
553,499	11,98
553,841	11,96
554,184	11,93
554,526	11,94
554,869	11,9
555,211	11,89
555,554	11,89
555,896	11,88
556,238	11,88
556,581	11,87
556,923	11,81
557,265	11,79
557,607	11,79
557,949	11,78
558,291	11,77
558,633	11,76
558,975	11,76
559,317	11,74
559,659	11,7
560,001	11,68
560,343	11,64
560,685	11,63
561,026	11,6
561,368	11,58
561,71	11,54
562,051	11,51
562,393	11,51
562,734	11,47
563,076	11,48
563,417	11,45
563,759	11,47
564,1	11,47
564,441	11,44
564,782	11,43
565,124	11,41
565,465	11,44
565,806	11,44
566,147	11,39
566,488	11,35
566,829	11,35
567,17	11,35
567,511	11,32
567,851	11,29
568,192	11,27
568,533	11,25
568,874	11,26
569,214	11,29
569,555	11,24
569,895	11,24
570,236	11,21
570,576	11,19
570,917	11,16
571,257	11,14
571,598	11,14
571,938	11,13
572,278	11,13
572,618	11,12
572,959	11,11
573,299	11,12
573,639	11,11
573,979	11,1
574,319	11,06
574,659	11,08
574,999	11,09
575,339	11,11
575,678	11,12
576,018	11,09
576,358	11,05
576,698	11,04
577,037	11,04
577,377	11,03
577,716	11,01
578,056	11
578,395	10,98
578,735	10,97
579,074	10,95
579,413	10,92
579,753	10,86
580,092	10,83
580,431	10,82
580,77	10,82
581,109	10,8
581,448	10,79
581,787	10,75
582,126	10,72
582,465	10,68
582,804	10,66
583,143	10,68
583,482	10,65
583,82	10,65
584,159	10,64
584,498	10,65
584,836	10,63
585,175	10,6
585,514	10,6
585,852	10,6
586,19	10,6
586,529	10,59
586,867	10,58
587,205	10,61
587,544	10,63
587,882	10,63
588,22	10,67
588,558	10,67
588,896	10,69
589,234	10,69
589,572	10,69
589,91	10,68
590,248	10,63
590,586	10,66
590,924	10,66
591,262	10,66
591,599	10,64
591,937	10,64
592,275	10,66
592,612	10,67
592,95	10,67
593,287	10,67
593,625	10,7
593,962	10,72
594,299	10,73
594,637	10,72
594,974	10,77
595,311	10,78
595,648	10,79
595,985	10,79
596,322	10,79
596,659	10,8
596,996	10,81
597,333	10,82
597,67	10,83
598,007	10,81
598,344	10,79
598,681	10,82
599,017	10,82
599,354	10,82
599,691	10,82
600,027	10,82
600,364	10,85
600,7	10,86
601,037	10,88
601,373	10,9
601,71	10,91
602,046	10,88
602,382	10,84
602,718	10,82
603,054	10,83
603,391	10,83
603,727	10,84
604,063	10,84
604,399	10,87
604,735	10,86
605,071	10,86
605,406	10,87
605,742	10,86
606,078	10,89
606,414	10,92
606,749	10,96
607,085	10,97
607,421	10,95
607,756	10,95
608,092	10,94
608,427	10,9
608,762	10,89
609,098	10,89
609,433	10,89
609,768	10,88
610,104	10,86
610,439	10,86
610,774	10,86
611,109	10,84
611,444	10,79
611,779	10,77
612,114	10,77
612,449	10,79
612,784	10,77
613,118	10,75
613,453	10,69
613,788	10,63
614,123	10,54
614,457	10,5
614,792	10,47
615,126	10,46
615,461	10,43
615,795	10,42
616,13	10,41
616,464	10,41
616,798	10,41
617,132	10,42
617,467	10,4
617,801	10,39
618,135	10,39
618,469	10,41
618,803	10,44
619,137	10,46
619,471	10,45
619,805	10,44
620,139	10,44
620,472	10,47
620,806	10,49
621,14	10,52
621,473	10,53
621,807	10,53
622,141	10,51
622,474	10,51
622,808	10,52
623,141	10,52
623,474	10,54
623,808	10,56
624,141	10,57
624,474	10,62
624,807	10,62
625,141	10,64
625,474	10,69
625,807	10,71
626,14	10,71
626,473	10,71
626,806	10,73
627,138	10,75
627,471	10,73
627,804	10,71
628,137	10,73
628,469	10,77
628,802	10,77
629,135	10,77
629,467	10,76
629,8	10,74
630,132	10,74
630,465	10,73
630,797	10,72
631,129	10,7
631,461	10,69
631,794	10,7
632,126	10,7
632,458	10,67
632,79	10,66
633,122	10,65
633,454	10,64
633,786	10,62
634,118	10,6
634,45	10,63
634,781	10,65
635,113	10,65
635,445	10,66
635,777	10,68
636,108	10,68
636,44	10,7
636,771	10,72
637,103	10,71
637,434	10,68
637,765	10,68
638,097	10,68
638,428	10,68
638,759	10,66
639,09	10,66
639,422	10,64
639,753	10,61
640,084	10,61
640,415	10,61
640,746	10,63
641,077	10,64
641,407	10,61
641,738	10,56
642,069	10,51
642,4	10,44
642,73	10,42
643,061	10,39
643,392	10,38
643,722	10,39
644,053	10,4
644,383	10,42
644,713	10,45
645,044	10,47
645,374	10,46
645,704	10,46
646,034	10,46
