Data from zc74042_2_Reflection_00004.txt Node
Date: Thu Mar 12 14:50:06 ART 2020
User: Ana
Spectrometer: USB2E3644
Trigger mode: 4
Integration Time (sec): 5,000000E-2
Scans to average: 10
Electric dark correction enabled: true
Nonlinearity correction enabled: false
Boxcar width: 10
XAxis mode: Wavelengths
Number of Pixels in Spectrum: 2048
>>>>>Begin Spectral Data<<<<<
178,315	79,97
178,696	80,37
179,076	81,31
179,457	85,3
179,838	82,83
180,218	94,87
180,599	133,33
180,979	92,86
181,36	61,24
181,74	99,6
182,121	92,36
182,501	92,4
182,881	82,68
183,262	82,09
183,642	83,88
184,022	87,59
184,402	92,07
184,783	96,34
185,163	99,09
185,543	98,23
185,923	98,06
186,303	98,71
186,683	99,56
187,063	100,59
187,443	100,82
187,823	98,9
188,203	100,3
188,583	102,74
188,963	105,94
189,343	108,58
189,723	109,03
190,102	111,84
190,482	119,18
190,862	123,21
191,242	126,3
191,621	124,87
192,001	123,24
192,38	118,84
192,76	117,2
193,14	118,24
193,519	118,92
193,898	119,12
194,278	120,15
194,657	120,78
195,037	121,3
195,416	122,95
195,795	124,63
196,175	125,39
196,554	124,08
196,933	121,32
197,312	121,28
197,692	119,65
198,071	117,88
198,45	116,32
198,829	116,15
199,208	116,06
199,587	116,67
199,966	116,55
200,345	117,51
200,724	116,87
201,103	115,8
201,482	116,13
201,86	117,16
202,239	118,09
202,618	118,41
202,997	118,04
203,375	117,3
203,754	116,58
204,133	115,52
204,511	114,85
204,89	114,29
205,269	113,57
205,647	115,54
206,026	116,44
206,404	116,19
206,782	115,73
207,161	115,76
207,539	116,11
207,918	116,45
208,296	116,07
208,674	117,51
209,052	117,76
209,431	116,63
209,809	115,35
210,187	113,84
210,565	113,53
210,943	114,83
211,321	116,7
211,699	117,73
212,077	118,71
212,455	120,98
212,833	123,45
213,211	124,09
213,589	123,93
213,967	124,71
214,345	125,33
214,722	125,62
215,1	126,16
215,478	126,26
215,855	127,18
216,233	129,75
216,611	131,73
216,988	133,98
217,366	134,33
217,743	133,99
218,121	135,65
218,498	137,2
218,876	137,24
219,253	135,8
219,631	136,1
220,008	136,4
220,385	136
220,762	135,6
221,14	138,65
221,517	138,58
221,894	137,97
222,271	138,86
222,648	140,66
223,025	141,98
223,402	143,93
223,78	146,11
224,157	146,78
224,533	145,48
224,91	145,78
225,287	149,42
225,664	155,14
226,041	159,66
226,418	162,87
226,795	164,22
227,171	167,3
227,548	170,91
227,925	173,18
228,301	175,2
228,678	177,15
229,055	174,88
229,431	175,99
229,808	179,26
230,184	181,56
230,561	182,93
230,937	184,37
231,313	186,97
231,69	187,78
232,066	184,38
232,442	182,94
232,819	183,52
233,195	180,86
233,571	180,5
233,947	180,94
234,323	180,9
234,699	184,87
235,075	187,33
235,451	189,68
235,827	192,7
236,203	196,35
236,579	202,28
236,955	213,05
237,331	223,74
237,707	238,14
238,083	265,09
238,459	314,65
238,834	401,7
239,21	567,78
239,586	894,94
239,961	1840,61
240,337	5707,41
240,713	-11503,7
241,088	-3254,17
241,464	-2373,48
241,839	-1785,31
242,215	-1079,12
242,59	-632,94
242,965	-349,78
243,341	-209,24
243,716	-143,44
244,091	-114,07
244,467	-98,23
244,842	-88,54
245,217	-81,84
245,592	-78,17
245,967	-78,61
246,343	-79,58
246,718	-80,59
247,093	-84,11
247,468	-86,44
247,843	-85,32
248,218	-82,15
248,593	-77,35
248,967	-72,14
249,342	-69,3
249,717	-67,52
250,092	-66,37
250,467	-67,45
250,841	-72,41
251,216	-81,84
251,591	-97,21
251,965	-111,44
252,34	-122,26
252,714	-134,05
253,089	-142,63
253,463	-150,79
253,838	-149,91
254,212	-142,46
254,587	-132,14
254,961	-115,44
255,335	-100,22
255,71	-85,14
256,084	-67,87
256,458	-55,06
256,832	-46,83
257,206	-42,45
257,581	-40,07
257,955	-38,16
258,329	-36,07
258,703	-33,87
259,077	-32,68
259,451	-31,51
259,825	-31,2
260,199	-31,38
260,572	-31,19
260,946	-31,11
261,32	-30,31
261,694	-29,43
262,068	-29,28
262,441	-29,1
262,815	-28,98
263,189	-28,33
263,562	-28,52
263,936	-30,66
264,309	-34,1
264,683	-37,74
265,056	-39,3
265,43	-39,91
265,803	-40,08
266,176	-39,9
266,55	-40,09
266,923	-39,66
267,296	-38,48
267,67	-36,27
268,043	-34,42
268,416	-32,24
268,789	-30,63
269,162	-29,28
269,535	-27,93
269,908	-26,59
270,281	-25,7
270,654	-25,51
271,027	-26,23
271,4	-26,58
271,773	-26,32
272,146	-25,91
272,519	-25,77
272,891	-26,05
273,264	-26,37
273,637	-26,61
274,01	-26,64
274,382	-27,06
274,755	-27,22
275,127	-27,47
275,5	-27,93
275,872	-28,07
276,245	-28,5
276,617	-28,9
276,99	-28,95
277,362	-29,12
277,734	-29,08
278,107	-28,89
278,479	-28,7
278,851	-28,13
279,223	-27,64
279,596	-27,42
279,968	-27,53
280,34	-27,25
280,712	-26,45
281,084	-25,3
281,456	-24,22
281,828	-23,09
282,2	-21,29
282,572	-19,84
282,944	-18,88
283,315	-18,24
283,687	-17,63
284,059	-17,28
284,431	-16,89
284,802	-16,56
285,174	-16,39
285,546	-16,29
285,917	-15,93
286,289	-15,43
286,66	-15,12
287,032	-14,66
287,403	-14,25
287,775	-13,98
288,146	-13,9
288,518	-13,97
288,889	-13,83
289,26	-13,88
289,632	-14,28
290,003	-14,99
290,374	-15,41
290,745	-15,55
291,116	-15,59
291,487	-15,74
291,858	-15,82
292,229	-15,89
292,6	-15,69
292,971	-15,14
293,342	-14,53
293,713	-14,1
294,084	-13,74
294,455	-13,03
294,826	-12,64
295,196	-12,61
295,567	-12,74
295,938	-12,55
296,308	-12,39
296,679	-12,36
297,05	-12,16
297,42	-11,89
297,791	-11,5
298,161	-11,22
298,532	-10,87
298,902	-10,58
299,272	-10,37
299,643	-10
300,013	-9,5
300,383	-9,32
300,754	-9,39
301,124	-9,59
301,494	-9,73
301,864	-9,88
302,234	-10,22
302,604	-10,36
302,974	-10,3
303,344	-10,03
303,714	-9,89
304,084	-9,61
304,454	-9,32
304,824	-9,11
305,194	-8,9
305,563	-8,98
305,933	-9,15
306,303	-9,29
306,673	-9,27
307,042	-9,02
307,412	-8,76
307,781	-8,51
308,151	-8,23
308,521	-7,99
308,89	-7,68
309,259	-7,63
309,629	-7,62
309,998	-7,57
310,368	-7,6
310,737	-7,58
311,106	-7,58
311,475	-7,44
311,845	-7,46
312,214	-7,4
312,583	-7,36
312,952	-7,42
313,321	-7,33
313,69	-6,98
314,059	-6,81
314,428	-6,85
314,797	-7,02
315,166	-7,31
315,535	-7,69
315,904	-8,12
316,272	-8,48
316,641	-8,83
317,01	-8,83
317,379	-8,6
317,747	-8,39
318,116	-8,04
318,484	-7,69
318,853	-7,4
319,221	-7,37
319,59	-7,32
319,958	-7,33
320,327	-7,32
320,695	-7,26
321,063	-7,11
321,432	-7,02
321,8	-6,81
322,168	-6,64
322,536	-6,53
322,905	-6,14
323,273	-5,79
323,641	-5,51
324,009	-5,15
324,377	-4,86
324,745	-4,67
325,113	-4,52
325,481	-4,24
325,849	-4,13
326,216	-4,17
326,584	-4,07
326,952	-3,92
327,32	-3,73
327,687	-3,59
328,055	-3,43
328,423	-3,23
328,79	-3,15
329,158	-3,18
329,525	-3,2
329,893	-3,15
330,26	-3,01
330,628	-3,08
330,995	-3,06
331,362	-3,01
331,73	-2,98
332,097	-2,82
332,464	-2,7
332,831	-2,6
333,199	-2,65
333,566	-2,6
333,933	-2,41
334,3	-2,32
334,667	-2,24
335,034	-2,16
335,401	-2,08
335,768	-1,99
336,135	-1,88
336,502	-1,73
336,868	-1,58
337,235	-1,43
337,602	-1,27
337,969	-1,12
338,335	-0,94
338,702	-0,81
339,069	-0,7
339,435	-0,7
339,802	-0,71
340,168	-0,65
340,535	-0,64
340,901	-0,67
341,267	-0,69
341,634	-0,67
342	-0,59
342,366	-0,46
342,733	-0,38
343,099	-0,29
343,465	-0,28
343,831	-0,28
344,197	-0,23
344,563	-0,21
344,929	-0,26
345,295	-0,24
345,661	-0,15
346,027	-0,08
346,393	-0,06
346,759	0,03
347,125	0,16
347,491	0,24
347,856	0,27
348,222	0,29
348,588	0,37
348,953	0,47
349,319	0,49
349,684	0,56
350,05	0,56
350,415	0,61
350,781	0,69
351,146	0,84
351,512	0,95
351,877	0,92
352,242	0,93
352,608	1,02
352,973	1,12
353,338	1,16
353,703	1,27
354,068	1,37
354,433	1,41
354,798	1,45
355,164	1,52
355,528	1,61
355,893	1,69
356,258	1,74
356,623	1,83
356,988	1,96
357,353	2
357,718	2,07
358,082	2,1
358,447	2,18
358,812	2,29
359,176	2,38
359,541	2,53
359,905	2,66
360,27	2,74
360,634	2,78
360,999	2,83
361,363	2,84
361,728	2,87
362,092	2,88
362,456	2,9
362,821	2,96
363,185	3,01
363,549	3,11
363,913	3,16
364,277	3,17
364,641	3,17
365,005	3,21
365,369	3,23
365,733	3,3
366,097	3,34
366,461	3,34
366,825	3,37
367,189	3,41
367,553	3,46
367,916	3,59
368,28	3,67
368,644	3,69
369,007	3,72
369,371	3,8
369,734	3,91
370,098	4,02
370,461	4,12
370,825	4,19
371,188	4,23
371,552	4,31
371,915	4,38
372,278	4,5
372,642	4,61
373,005	4,75
373,368	4,89
373,731	5
374,094	5,11
374,457	5,21
374,82	5,32
375,183	5,42
375,546	5,46
375,909	5,53
376,272	5,71
376,635	5,85
376,998	5,91
377,361	5,98
377,723	6,05
378,086	6,12
378,449	6,16
378,811	6,21
379,174	6,28
379,537	6,35
379,899	6,38
380,262	6,4
380,624	6,44
380,987	6,47
381,349	6,55
381,711	6,58
382,074	6,61
382,436	6,66
382,798	6,74
383,16	6,75
383,522	6,79
383,884	6,76
384,247	6,74
384,609	6,8
384,971	6,81
385,333	6,82
385,695	6,84
386,056	6,88
386,418	6,9
386,78	6,88
387,142	6,86
387,504	6,84
387,865	6,88
388,227	6,88
388,589	6,87
388,95	6,86
389,312	6,86
389,673	6,89
390,035	6,91
390,396	6,91
390,758	6,98
391,119	7,01
391,48	7,07
391,842	7,11
392,203	7,14
392,564	7,14
392,925	7,18
393,286	7,22
393,648	7,24
394,009	7,29
394,37	7,33
394,731	7,4
395,092	7,46
395,452	7,46
395,813	7,48
396,174	7,51
396,535	7,52
396,896	7,53
397,257	7,55
397,617	7,56
397,978	7,55
398,338	7,54
398,699	7,57
399,06	7,59
399,42	7,59
399,781	7,59
400,141	7,63
400,501	7,62
400,862	7,6
401,222	7,59
401,582	7,58
401,943	7,6
402,303	7,61
402,663	7,62
403,023	7,63
403,383	7,66
403,743	7,7
404,103	7,73
404,463	7,77
404,823	7,82
405,183	7,85
405,543	7,9
405,903	7,92
406,262	7,92
406,622	7,9
406,982	7,93
407,342	7,98
407,701	8,01
408,061	8,02
408,42	8,05
408,78	8,08
409,139	8,1
409,499	8,13
409,858	8,13
410,217	8,16
410,577	8,17
410,936	8,16
411,295	8,14
411,655	8,12
412,014	8,12
412,373	8,08
412,732	8,05
413,091	8,01
413,45	7,98
413,809	7,94
414,168	7,89
414,527	7,83
414,886	7,75
415,245	7,7
415,603	7,65
415,962	7,62
416,321	7,58
416,679	7,55
417,038	7,48
417,397	7,46
417,755	7,42
418,114	7,38
418,472	7,35
418,831	7,33
419,189	7,32
419,547	7,31
419,906	7,3
420,264	7,27
420,622	7,25
420,981	7,24
421,339	7,23
421,697	7,23
422,055	7,25
422,413	7,28
422,771	7,3
423,129	7,33
423,487	7,35
423,845	7,37
424,203	7,4
424,56	7,44
424,918	7,46
425,276	7,49
425,634	7,54
425,991	7,58
426,349	7,61
426,707	7,65
427,064	7,67
427,422	7,68
427,779	7,75
428,137	7,83
428,494	7,91
428,851	7,95
429,209	7,98
429,566	7,98
429,923	7,97
430,28	7,96
430,637	7,98
430,995	7,95
431,352	7,94
431,709	7,93
432,066	7,93
432,423	7,94
432,78	7,94
433,137	7,93
433,493	7,91
433,85	7,93
434,207	7,91
434,564	7,9
434,92	7,91
435,277	7,88
435,634	7,84
435,99	7,82
436,347	7,81
436,703	7,82
437,06	7,8
437,416	7,81
437,773	7,8
438,129	7,78
438,485	7,79
438,841	7,78
439,198	7,77
439,554	7,77
439,91	7,78
440,266	7,78
440,622	7,77
440,978	7,76
441,334	7,73
441,69	7,73
442,046	7,71
442,402	7,69
442,758	7,69
443,113	7,69
443,469	7,67
443,825	7,67
444,181	7,66
444,536	7,69
444,892	7,69
445,247	7,7
445,603	7,71
445,958	7,72
446,314	7,73
446,669	7,74
447,025	7,74
447,38	7,74
447,735	7,76
448,09	7,78
448,446	7,8
448,801	7,82
449,156	7,84
449,511	7,87
449,866	7,91
450,221	7,95
450,576	8
450,931	8,06
451,286	8,08
451,641	8,11
451,995	8,13
452,35	8,16
452,705	8,18
453,06	8,18
453,414	8,21
453,769	8,21
454,123	8,23
454,478	8,26
454,832	8,25
455,187	8,24
455,541	8,21
455,896	8,19
456,25	8,18
456,604	8,13
456,958	8,11
457,313	8,08
457,667	8,05
458,021	8,05
458,375	8,04
458,729	8,07
459,083	8,09
459,437	8,09
459,791	8,08
460,145	8,09
460,499	8,09
460,852	8,08
461,206	8,08
461,56	8,08
461,914	8,09
462,267	8,1
462,621	8,12
462,974	8,16
463,328	8,18
463,681	8,19
464,035	8,23
464,388	8,27
464,742	8,3
465,095	8,33
465,448	8,34
465,801	8,35
466,155	8,31
466,508	8,3
466,861	8,29
467,214	8,29
467,567	8,29
467,92	8,29
468,273	8,29
468,626	8,29
468,979	8,29
469,332	8,28
469,684	8,28
470,037	8,28
470,39	8,27
470,743	8,28
471,095	8,3
471,448	8,31
471,8	8,32
472,153	8,32
472,505	8,33
472,858	8,31
473,21	8,31
473,562	8,36
473,915	8,36
474,267	8,36
474,619	8,37
474,971	8,37
475,324	8,35
475,676	8,36
476,028	8,35
476,38	8,36
476,732	8,35
477,084	8,33
477,436	8,31
477,787	8,3
478,139	8,29
478,491	8,28
478,843	8,27
479,195	8,26
479,546	8,22
479,898	8,17
480,249	8,13
480,601	8,08
480,952	8,04
481,304	8,03
481,655	8,03
482,007	8,02
482,358	8
482,709	8
483,061	7,99
483,412	7,98
483,763	7,98
484,114	7,98
484,465	7,98
484,816	7,97
485,167	7,96
485,518	7,96
485,869	7,95
486,22	7,96
486,571	7,96
486,922	7,97
487,272	7,98
487,623	8
487,974	8,03
488,324	8,05
488,675	8,05
489,025	8,06
489,376	8,07
489,726	8,08
490,077	8,1
490,427	8,12
490,778	8,14
491,128	8,15
491,478	8,17
491,828	8,2
492,179	8,23
492,529	8,27
492,879	8,29
493,229	8,3
493,579	8,31
493,929	8,32
494,279	8,34
494,629	8,36
494,979	8,38
495,328	8,39
495,678	8,43
496,028	8,46
496,378	8,48
496,727	8,51
497,077	8,54
497,426	8,55
497,776	8,55
498,125	8,55
498,475	8,57
498,824	8,56
499,174	8,56
499,523	8,57
499,872	8,59
500,221	8,6
500,571	8,6
500,92	8,61
501,269	8,6
501,618	8,59
501,967	8,6
502,316	8,61
502,665	8,63
503,014	8,63
503,363	8,64
503,711	8,64
504,06	8,64
504,409	8,65
504,758	8,65
505,106	8,64
505,455	8,66
505,803	8,65
506,152	8,65
506,5	8,65
506,849	8,66
507,197	8,66
507,546	8,66
507,894	8,68
508,242	8,68
508,59	8,67
508,939	8,67
509,287	8,68
509,635	8,68
509,983	8,69
510,331	8,69
510,679	8,7
511,027	8,69
511,375	8,69
511,723	8,7
512,07	8,7
512,418	8,73
512,766	8,73
513,114	8,75
513,461	8,78
513,809	8,76
514,156	8,74
514,504	8,73
514,851	8,72
515,199	8,69
515,546	8,7
515,893	8,71
516,241	8,72
516,588	8,71
516,935	8,72
517,282	8,72
517,63	8,73
517,977	8,72
518,324	8,73
518,671	8,73
519,018	8,73
519,365	8,74
519,711	8,73
520,058	8,75
520,405	8,75
520,752	8,75
521,099	8,77
521,445	8,79
521,792	8,8
522,138	8,8
522,485	8,82
522,832	8,83
523,178	8,84
523,524	8,83
523,871	8,85
524,217	8,85
524,563	8,83
524,91	8,8
525,256	8,78
525,602	8,76
525,948	8,75
526,294	8,74
526,64	8,72
526,986	8,71
527,332	8,69
527,678	8,69
528,024	8,67
528,37	8,68
528,716	8,67
529,061	8,68
529,407	8,68
529,753	8,68
530,098	8,67
530,444	8,67
530,789	8,67
531,135	8,67
531,48	8,66
531,826	8,66
532,171	8,67
532,516	8,69
532,862	8,71
533,207	8,72
533,552	8,74
533,897	8,75
534,242	8,76
534,587	8,79
534,932	8,8
535,277	8,82
535,622	8,83
535,967	8,84
536,312	8,86
536,657	8,88
537,001	8,89
537,346	8,9
537,691	8,92
538,035	8,94
538,38	8,91
538,724	8,92
539,069	8,91
539,413	8,92
539,758	8,92
540,102	8,92
540,446	8,91
540,791	8,9
541,135	8,92
541,479	8,94
541,823	8,93
542,167	8,94
542,512	8,94
542,856	8,92
543,2	8,92
543,543	8,92
543,887	8,91
544,231	8,93
544,575	8,94
544,919	8,94
545,262	8,96
545,606	9
545,95	9,01
546,293	9,04
546,637	9,05
546,98	9,06
547,324	9,08
547,667	9,12
548,011	9,15
548,354	9,15
548,697	9,13
549,04	9,14
549,384	9,12
549,727	9,11
550,07	9,13
550,413	9,12
550,756	9,11
551,099	9,14
551,442	9,12
551,785	9,14
552,128	9,13
552,47	9,08
552,813	9,08
553,156	9,09
553,499	9,08
553,841	9,07
554,184	9,07
554,526	9,04
554,869	9,01
555,211	9
555,554	8,97
555,896	8,96
556,238	8,94
556,581	8,92
556,923	8,89
557,265	8,88
557,607	8,87
557,949	8,86
558,291	8,82
558,633	8,79
558,975	8,79
559,317	8,77
559,659	8,76
560,001	8,73
560,343	8,71
560,685	8,67
561,026	8,66
561,368	8,63
561,71	8,62
562,051	8,61
562,393	8,6
562,734	8,57
563,076	8,53
563,417	8,5
563,759	8,52
564,1	8,52
564,441	8,51
564,782	8,47
565,124	8,46
565,465	8,45
565,806	8,41
566,147	8,37
566,488	8,35
566,829	8,34
567,17	8,33
567,511	8,33
567,851	8,35
568,192	8,32
568,533	8,32
568,874	8,34
569,214	8,34
569,555	8,32
569,895	8,32
570,236	8,32
570,576	8,3
570,917	8,28
571,257	8,27
571,598	8,25
571,938	8,27
572,278	8,27
572,618	8,27
572,959	8,29
573,299	8,3
573,639	8,29
573,979	8,3
574,319	8,29
574,659	8,28
574,999	8,25
575,339	8,25
575,678	8,23
576,018	8,19
576,358	8,15
576,698	8,12
577,037	8,11
577,377	8,1
577,716	8,09
578,056	8,07
578,395	8,05
578,735	8,03
579,074	7,99
579,413	7,95
579,753	7,93
580,092	7,89
580,431	7,86
580,77	7,85
581,109	7,83
581,448	7,81
581,787	7,77
582,126	7,74
582,465	7,71
582,804	7,7
583,143	7,69
583,482	7,71
583,82	7,72
584,159	7,73
584,498	7,72
584,836	7,71
585,175	7,7
585,514	7,69
585,852	7,7
586,19	7,72
586,529	7,73
586,867	7,72
587,205	7,73
587,544	7,74
587,882	7,76
588,22	7,78
588,558	7,8
588,896	7,85
589,234	7,86
589,572	7,87
589,91	7,87
590,248	7,88
590,586	7,88
590,924	7,89
591,262	7,88
591,599	7,9
591,937	7,92
592,275	7,92
592,612	7,91
592,95	7,92
593,287	7,92
593,625	7,93
593,962	7,95
594,299	7,97
594,637	8
594,974	8,02
595,311	8,02
595,648	8,03
595,985	8,03
596,322	8,04
596,659	8,03
596,996	8,04
597,333	8,04
597,67	8,03
598,007	8,03
598,344	8,04
598,681	8,05
599,017	8,05
599,354	8,07
599,691	8,09
600,027	8,1
600,364	8,1
600,7	8,14
601,037	8,17
601,373	8,19
601,71	8,18
602,046	8,18
602,382	8,18
602,718	8,18
603,054	8,16
603,391	8,17
603,727	8,18
604,063	8,2
604,399	8,23
604,735	8,26
605,071	8,27
605,406	8,28
605,742	8,3
606,078	8,31
606,414	8,33
606,749	8,34
607,085	8,37
607,421	8,4
607,756	8,4
608,092	8,35
608,427	8,32
608,762	8,3
609,098	8,28
609,433	8,26
609,768	8,26
610,104	8,25
610,439	8,22
610,774	8,2
611,109	8,19
611,444	8,14
611,779	8,1
612,114	8,08
612,449	8,07
612,784	8,04
613,118	7,99
613,453	7,96
613,788	7,9
614,123	7,83
614,457	7,77
614,792	7,7
615,126	7,71
615,461	7,7
615,795	7,71
616,13	7,7
616,464	7,67
616,798	7,66
617,132	7,66
617,467	7,68
617,801	7,69
618,135	7,72
618,469	7,73
618,803	7,75
619,137	7,77
619,471	7,79
619,805	7,78
620,139	7,8
620,472	7,81
620,806	7,83
621,14	7,82
621,473	7,84
621,807	7,84
622,141	7,85
622,474	7,85
622,808	7,82
623,141	7,82
623,474	7,85
623,808	7,89
624,141	7,93
624,474	7,95
624,807	7,96
625,141	7,95
625,474	7,99
625,807	8,02
626,14	8,01
626,473	8
626,806	8,03
627,138	8,05
627,471	8,04
627,804	8,05
628,137	8,08
628,469	8,09
628,802	8,11
629,135	8,14
629,467	8,18
629,8	8,22
630,132	8,24
630,465	8,25
630,797	8,24
631,129	8,23
631,461	8,25
631,794	8,25
632,126	8,26
632,458	8,25
632,79	8,27
633,122	8,28
633,454	8,27
633,786	8,27
634,118	8,25
634,45	8,26
634,781	8,27
635,113	8,27
635,445	8,26
635,777	8,25
636,108	8,2
636,44	8,18
636,771	8,19
637,103	8,18
637,434	8,16
637,765	8,17
638,097	8,16
638,428	8,12
638,759	8,09
639,09	8,06
639,422	8,04
639,753	8,02
640,084	8,03
640,415	8,04
640,746	8,03
641,077	8,04
641,407	8,03
641,738	8,04
642,069	8,03
642,4	8,04
642,73	8,03
643,061	8,05
643,392	8,04
643,722	8,02
644,053	8,03
644,383	8,04
644,713	8,04
645,044	8,01
645,374	8,03
645,704	8,04
646,034	8,06
646,365	8,05
646,695	8,03
647,025	8,05
647,355	8,08
647,685	8,08
648,015	8,07
648,344	8,06
648,674	8,08
649,004	8,09
649,334	8,11
649,663	8,15
649,993	8,17
650,323	8,24
650,652	8,25
650,982	8,27
651,311	8,27
651,64	8,26
651,97	8,3
652,299	8,32
652,628	8,37
652,958	8,37
653,287	8,38
653,616	8,41
653,945	8,42
654,274	8,41
654,603	8,42
654,932	8,43
655,261	8,44
655,589	8,46
655,918	8,47
656,247	8,52
656,576	8,56
656,904	8,61
657,233	8,6
657,561	8,65
657,89	8,68
658,218	8,72
658,547	8,76
658,875	8,76
659,203	8,79
659,532	8,8
659,86	8,84
660,188	8,84
660,516	8,85
660,844	8,87
661,172	8,89
661,5	8,93
661,828	8,96
662,156	8,98
662,484	8,98
662,811	9,01
663,139	8,98
663,467	8,93
663,794	8,9
664,122	8,93
664,45	8,88
664,777	8,86
