Data from zc74019_3_Reflection_00001.txt Node
Date: Thu Mar 12 14:42:33 ART 2020
User: Ana
Spectrometer: USB2E3644
Trigger mode: 4
Integration Time (sec): 5,000000E-2
Scans to average: 10
Electric dark correction enabled: true
Nonlinearity correction enabled: false
Boxcar width: 10
XAxis mode: Wavelengths
Number of Pixels in Spectrum: 2048
>>>>>Begin Spectral Data<<<<<
178,315	53,54
178,696	54,5
179,076	47,02
179,457	40,93
179,838	43,09
180,218	60,85
180,599	-22,22
180,979	75,86
181,36	257,78
181,74	241,27
182,121	214,1
182,501	176,73
182,881	184,47
183,262	168,61
183,642	162,63
184,022	151,99
184,402	145,27
184,783	140,14
185,163	137,13
185,543	138,48
185,923	138,28
186,303	141,7
186,683	146,06
187,063	150,39
187,443	153,51
187,823	161,3
188,203	171,03
188,583	175,8
188,963	176,44
189,343	169,44
189,723	163,87
190,102	160,59
190,482	156,92
190,862	154,42
191,242	153,26
191,621	150,92
192,001	147,09
192,38	146,18
192,76	143,37
193,14	139,57
193,519	138,84
193,898	139,48
194,278	138,78
194,657	137,08
195,037	133,65
195,416	130,22
195,795	129,81
196,175	130
196,554	130,04
196,933	130,08
197,312	131,57
197,692	132,79
198,071	133,51
198,45	133,99
198,829	135,76
199,208	137,67
199,587	139,13
199,966	139,25
200,345	137,84
200,724	139,08
201,103	141,59
201,482	141,74
201,86	139,91
202,239	138,57
202,618	137,33
202,997	137,13
203,375	137,62
203,754	137,01
204,133	135,26
204,511	131,86
204,89	130,83
205,269	130,66
205,647	129,78
206,026	131,36
206,404	135,08
206,782	135,3
207,161	134,86
207,539	134,83
207,918	136,68
208,296	137,86
208,674	136,66
209,052	136,37
209,431	138,04
209,809	141,22
210,187	143,2
210,565	143,56
210,943	144,99
211,321	147,18
211,699	147,47
212,077	147,77
212,455	149,19
212,833	151,28
213,211	152,07
213,589	155,41
213,967	154,4
214,345	148,2
214,722	143,75
215,1	141,92
215,478	139,38
215,855	138,85
216,233	140,8
216,611	141,1
216,988	138,91
217,366	135,73
217,743	133,99
218,121	133,08
218,498	134,2
218,876	133,23
219,253	131,32
219,631	130,83
220,008	131,22
220,385	132,47
220,762	131,58
221,14	131,66
221,517	129,17
221,894	127,78
222,271	129,95
222,648	133,5
223,025	135,56
223,402	136,61
223,78	135,59
224,157	134,5
224,533	137,7
224,91	145,71
225,287	152,75
225,664	158,4
226,041	164,04
226,418	168,88
226,795	175,15
227,171	183,88
227,548	189,37
227,925	190,72
228,301	196,72
228,678	202,61
229,055	202,33
229,431	207,33
229,808	211,87
230,184	211
230,561	214,92
230,937	225,05
231,313	238,54
231,69	244,28
232,066	246,1
232,442	237
232,819	227,45
233,195	221,7
233,571	222,85
233,947	219,82
234,323	220,35
234,699	224,01
235,075	227,59
235,451	235,9
235,827	245,35
236,203	257,58
236,579	274,27
236,955	298,98
237,331	325,55
237,707	377,69
238,083	475,66
238,459	635,16
238,834	1123,3
239,21	6917,78
239,586	-1594,87
239,961	-930,68
240,337	-675,74
240,713	-589,44
241,088	-548,32
241,464	-512,99
241,839	-469,77
242,215	-393,92
242,59	-310,9
242,965	-217,08
243,341	-151,64
243,716	-111,75
244,091	-91,86
244,467	-80,37
244,842	-72,49
245,217	-67,24
245,592	-64,47
245,967	-64,23
246,343	-63,34
246,718	-62,98
247,093	-64,22
247,468	-65,34
247,843	-64,06
248,218	-61,23
248,593	-56,17
248,967	-51,84
249,342	-49,62
249,717	-48,71
250,092	-47,94
250,467	-47,93
250,841	-51,1
251,216	-57,22
251,591	-65,78
251,965	-73,45
252,34	-79,1
252,714	-85,91
253,089	-89,86
253,463	-92,02
253,838	-89,77
254,212	-86,46
254,587	-83
254,961	-75,63
255,335	-66,64
255,71	-57,25
256,084	-46,74
256,458	-39,68
256,832	-34,67
257,206	-31,39
257,581	-29,06
257,955	-27,89
258,329	-27,01
258,703	-25,64
259,077	-24,45
259,451	-23,37
259,825	-23
260,199	-23,44
260,572	-23,24
260,946	-23,14
261,32	-22,64
261,694	-21,91
262,068	-21,56
262,441	-21,18
262,815	-21
263,189	-20,55
263,562	-20,68
263,936	-22,01
264,309	-23,9
264,683	-25,77
265,056	-26,71
265,43	-27,33
265,803	-27,74
266,176	-27,59
266,55	-27,45
266,923	-27,25
267,296	-26,76
267,67	-25,61
268,043	-24,34
268,416	-22,89
268,789	-21,73
269,162	-20,72
269,535	-19,88
269,908	-19,17
270,281	-18,92
270,654	-19,17
271,027	-19,72
271,4	-19,97
271,773	-20
272,146	-19,94
272,519	-19,91
272,891	-20,08
273,264	-20,17
273,637	-20
274,01	-19,71
274,382	-20,01
274,755	-20,13
275,127	-20,32
275,5	-20,7
275,872	-20,76
276,245	-21,04
276,617	-21,41
276,99	-21,89
277,362	-22,66
277,734	-22,93
278,107	-22,63
278,479	-22,2
278,851	-22,03
279,223	-21,75
279,596	-21,76
279,968	-21,97
280,34	-21,94
280,712	-21,38
281,084	-20,51
281,456	-19,83
281,828	-19,15
282,2	-17,95
282,572	-16,94
282,944	-16,3
283,315	-15,83
283,687	-15,39
284,059	-15,19
284,431	-15,04
284,802	-14,71
285,174	-14,26
285,546	-13,92
285,917	-13,62
286,289	-13,45
286,66	-13,16
287,032	-12,78
287,403	-12,36
287,775	-11,99
288,146	-12,06
288,518	-12,37
288,889	-12,48
289,26	-12,4
289,632	-12,63
290,003	-13,14
290,374	-13,51
290,745	-13,63
291,116	-13,66
291,487	-13,82
291,858	-13,75
292,229	-13,6
292,6	-13,42
292,971	-12,96
293,342	-12,52
293,713	-12,03
294,084	-11,38
294,455	-10,87
294,826	-10,8
295,196	-10,91
295,567	-11,22
295,938	-11,12
296,308	-10,91
296,679	-10,76
297,05	-10,69
297,42	-10,42
297,791	-9,94
298,161	-9,68
298,532	-9,52
298,902	-9,44
299,272	-9,26
299,643	-9,15
300,013	-8,84
300,383	-8,62
300,754	-8,68
301,124	-8,84
301,494	-9,13
301,864	-9,45
302,234	-9,85
302,604	-9,86
302,974	-9,72
303,344	-9,48
303,714	-9,2
304,084	-8,77
304,454	-8,62
304,824	-8,51
305,194	-8,58
305,563	-8,68
305,933	-8,63
306,303	-8,54
306,673	-8,14
307,042	-7,76
307,412	-7,43
307,781	-7,09
308,151	-6,86
308,521	-6,79
308,89	-6,78
309,259	-6,83
309,629	-6,72
309,998	-6,42
310,368	-6,29
310,737	-6,22
311,106	-6,07
311,475	-5,99
311,845	-6,11
312,214	-6,01
312,583	-6
312,952	-6,04
313,321	-6,09
313,69	-5,92
314,059	-5,78
314,428	-5,91
314,797	-6,11
315,166	-6,36
315,535	-6,82
315,904	-7,22
316,272	-7,37
316,641	-7,34
317,01	-7,15
317,379	-7,15
317,747	-7,18
318,116	-7,1
318,484	-6,94
318,853	-6,8
319,221	-6,75
319,59	-6,79
319,958	-6,83
320,327	-6,69
320,695	-6,43
321,063	-6,08
321,432	-5,87
321,8	-5,66
322,168	-5,54
322,536	-5,54
322,905	-5,22
323,273	-4,87
323,641	-4,62
324,009	-4,48
324,377	-4,45
324,745	-4,47
325,113	-4,34
325,481	-4,11
325,849	-3,97
326,216	-3,82
326,584	-3,72
326,952	-3,6
327,32	-3,3
327,687	-3,12
328,055	-2,9
328,423	-2,78
328,79	-2,83
329,158	-2,9
329,525	-2,94
329,893	-2,89
330,26	-2,66
330,628	-2,63
330,995	-2,63
331,362	-2,66
331,73	-2,63
332,097	-2,51
332,464	-2,29
332,831	-2,1
333,199	-1,98
333,566	-1,84
333,933	-1,79
334,3	-1,71
334,667	-1,6
335,034	-1,6
335,401	-1,61
335,768	-1,65
336,135	-1,64
336,502	-1,54
336,868	-1,45
337,235	-1,39
337,602	-1,27
337,969	-1,15
338,335	-1,05
338,702	-0,91
339,069	-0,77
339,435	-0,65
339,802	-0,52
340,168	-0,55
340,535	-0,58
340,901	-0,7
341,267	-0,81
341,634	-0,74
342	-0,64
342,366	-0,57
342,733	-0,51
343,099	-0,36
343,465	-0,37
343,831	-0,4
344,197	-0,4
344,563	-0,42
344,929	-0,39
345,295	-0,36
345,661	-0,34
346,027	-0,36
346,393	-0,38
346,759	-0,33
347,125	-0,31
347,491	-0,3
347,856	-0,26
348,222	-0,3
348,588	-0,19
348,953	-0,11
349,319	-0,18
349,684	-0,23
350,05	-0,28
350,415	-0,3
350,781	-0,36
351,146	-0,3
351,512	-0,18
351,877	-0,16
352,242	-0,16
352,608	-0,14
352,973	-0,1
353,338	-0,05
353,703	0,06
354,068	0,13
354,433	0,17
354,798	0,21
355,164	0,24
355,528	0,29
355,893	0,37
356,258	0,38
356,623	0,45
356,988	0,6
357,353	0,72
357,718	0,79
358,082	0,84
358,447	0,89
358,812	1,01
359,176	1,09
359,541	1,19
359,905	1,29
360,27	1,31
360,634	1,32
360,999	1,36
361,363	1,36
361,728	1,37
362,092	1,4
362,456	1,43
362,821	1,49
363,185	1,54
363,549	1,62
363,913	1,68
364,277	1,68
364,641	1,64
365,005	1,64
365,369	1,63
365,733	1,7
366,097	1,76
366,461	1,77
366,825	1,82
367,189	1,87
367,553	1,95
367,916	2,11
368,28	2,23
368,644	2,3
369,007	2,39
369,371	2,52
369,734	2,6
370,098	2,65
370,461	2,7
370,825	2,77
371,188	2,81
371,552	2,87
371,915	2,93
372,278	3,04
372,642	3,14
373,005	3,27
373,368	3,38
373,731	3,45
374,094	3,53
374,457	3,6
374,82	3,7
375,183	3,75
375,546	3,79
375,909	3,85
376,272	3,95
376,635	4,01
376,998	4,06
377,361	4,15
377,723	4,24
378,086	4,3
378,449	4,35
378,811	4,4
379,174	4,48
379,537	4,55
379,899	4,59
380,262	4,61
380,624	4,63
380,987	4,66
381,349	4,73
381,711	4,79
382,074	4,86
382,436	4,89
382,798	4,98
383,16	4,99
383,522	4,99
383,884	4,96
384,247	4,96
384,609	4,96
384,971	4,94
385,333	4,93
385,695	4,95
386,056	4,96
386,418	4,95
386,78	4,93
387,142	4,91
387,504	4,92
387,865	4,94
388,227	4,97
388,589	4,97
388,95	4,95
389,312	4,94
389,673	4,96
390,035	4,96
390,396	4,95
390,758	4,97
391,119	5
391,48	5,01
391,842	5,04
392,203	5,08
392,564	5,12
392,925	5,19
393,286	5,2
393,648	5,23
394,009	5,28
394,37	5,33
394,731	5,39
395,092	5,44
395,452	5,47
395,813	5,49
396,174	5,51
396,535	5,55
396,896	5,54
397,257	5,55
397,617	5,61
397,978	5,63
398,338	5,65
398,699	5,71
399,06	5,76
399,42	5,77
399,781	5,79
400,141	5,8
400,501	5,79
400,862	5,84
401,222	5,85
401,582	5,85
401,943	5,87
402,303	5,86
402,663	5,84
403,023	5,87
403,383	5,9
403,743	5,92
404,103	5,94
404,463	5,99
404,823	6,01
405,183	6
405,543	6,05
405,903	6,06
406,262	6,08
406,622	6,08
406,982	6,11
407,342	6,14
407,701	6,19
408,061	6,23
408,42	6,25
408,78	6,28
409,139	6,31
409,499	6,34
409,858	6,37
410,217	6,42
410,577	6,41
410,936	6,39
411,295	6,39
411,655	6,38
412,014	6,36
412,373	6,35
412,732	6,33
413,091	6,31
413,45	6,28
413,809	6,22
414,168	6,17
414,527	6,12
414,886	6,07
415,245	6,01
415,603	5,95
415,962	5,89
416,321	5,84
416,679	5,79
417,038	5,73
417,397	5,68
417,755	5,64
418,114	5,61
418,472	5,59
418,831	5,59
419,189	5,58
419,547	5,55
419,906	5,52
420,264	5,5
420,622	5,46
420,981	5,45
421,339	5,45
421,697	5,45
422,055	5,47
422,413	5,49
422,771	5,51
423,129	5,55
423,487	5,58
423,845	5,62
424,203	5,65
424,56	5,7
424,918	5,73
425,276	5,77
425,634	5,81
425,991	5,85
426,349	5,87
426,707	5,9
427,064	5,96
427,422	6
427,779	6,05
428,137	6,12
428,494	6,2
428,851	6,24
429,209	6,26
429,566	6,25
429,923	6,23
430,28	6,2
430,637	6,18
430,995	6,18
431,352	6,16
431,709	6,15
432,066	6,15
432,423	6,16
432,78	6,15
433,137	6,15
433,493	6,13
433,85	6,15
434,207	6,13
434,564	6,1
434,92	6,09
435,277	6,08
435,634	6,06
435,99	6,01
436,347	5,99
436,703	5,99
437,06	5,99
437,416	5,99
437,773	5,99
438,129	5,98
438,485	5,98
438,841	5,97
439,198	5,97
439,554	5,96
439,91	5,97
440,266	5,98
440,622	5,98
440,978	5,96
441,334	5,92
441,69	5,9
442,046	5,88
442,402	5,85
442,758	5,83
443,113	5,83
443,469	5,83
443,825	5,84
444,181	5,85
444,536	5,85
444,892	5,85
445,247	5,87
445,603	5,88
445,958	5,88
446,314	5,88
446,669	5,88
447,025	5,88
447,38	5,87
447,735	5,87
448,09	5,88
448,446	5,89
448,801	5,91
449,156	5,93
449,511	5,97
449,866	6,02
450,221	6,06
450,576	6,07
450,931	6,11
451,286	6,15
451,641	6,17
451,995	6,19
452,35	6,23
452,705	6,24
453,06	6,26
453,414	6,28
453,769	6,29
454,123	6,28
454,478	6,28
454,832	6,29
455,187	6,27
455,541	6,24
455,896	6,21
456,25	6,18
456,604	6,15
456,958	6,14
457,313	6,13
457,667	6,13
458,021	6,13
458,375	6,13
458,729	6,15
459,083	6,16
459,437	6,16
459,791	6,15
460,145	6,16
460,499	6,15
460,852	6,12
461,206	6,13
461,56	6,13
461,914	6,15
462,267	6,14
462,621	6,16
462,974	6,18
463,328	6,21
463,681	6,22
464,035	6,26
464,388	6,27
464,742	6,28
465,095	6,28
465,448	6,29
465,801	6,29
466,155	6,25
466,508	6,23
466,861	6,22
467,214	6,21
467,567	6,19
467,92	6,21
468,273	6,22
468,626	6,2
468,979	6,2
469,332	6,19
469,684	6,18
470,037	6,18
470,39	6,18
470,743	6,2
471,095	6,24
471,448	6,23
471,8	6,24
472,153	6,26
472,505	6,26
472,858	6,26
473,21	6,27
473,562	6,28
473,915	6,29
474,267	6,29
474,619	6,29
474,971	6,29
475,324	6,26
475,676	6,26
476,028	6,25
476,38	6,26
476,732	6,26
477,084	6,25
477,436	6,24
477,787	6,22
478,139	6,18
478,491	6,16
478,843	6,14
479,195	6,09
479,546	6,02
479,898	5,93
480,249	5,84
480,601	5,77
480,952	5,72
481,304	5,72
481,655	5,74
482,007	5,76
482,358	5,77
482,709	5,78
483,061	5,76
483,412	5,76
483,763	5,74
484,114	5,72
484,465	5,72
484,816	5,71
485,167	5,72
485,518	5,73
485,869	5,74
486,22	5,75
486,571	5,77
486,922	5,79
487,272	5,83
487,623	5,87
487,974	5,9
488,324	5,92
488,675	5,91
489,025	5,9
489,376	5,9
489,726	5,9
490,077	5,91
490,427	5,94
490,778	5,96
491,128	6
491,478	6,03
491,828	6,07
492,179	6,09
492,529	6,11
492,879	6,1
493,229	6,11
493,579	6,11
493,929	6,1
494,279	6,12
494,629	6,14
494,979	6,18
495,328	6,21
495,678	6,28
496,028	6,33
496,378	6,36
496,727	6,37
497,077	6,35
497,426	6,35
497,776	6,34
498,125	6,33
498,475	6,34
498,824	6,35
499,174	6,36
499,523	6,37
499,872	6,37
500,221	6,39
500,571	6,39
500,92	6,4
501,269	6,42
501,618	6,42
501,967	6,42
502,316	6,42
502,665	6,42
503,014	6,42
503,363	6,41
503,711	6,42
504,06	6,4
504,409	6,39
504,758	6,39
505,106	6,39
505,455	6,37
505,803	6,35
506,152	6,33
506,5	6,31
506,849	6,3
507,197	6,29
507,546	6,29
507,894	6,31
508,242	6,3
508,59	6,29
508,939	6,26
509,287	6,27
509,635	6,27
509,983	6,27
510,331	6,27
510,679	6,3
511,027	6,3
511,375	6,31
511,723	6,33
512,07	6,33
512,418	6,34
512,766	6,37
513,114	6,39
513,461	6,42
513,809	6,43
514,156	6,43
514,504	6,45
514,851	6,42
515,199	6,39
515,546	6,39
515,893	6,4
516,241	6,42
516,588	6,42
516,935	6,44
517,282	6,45
517,63	6,46
517,977	6,45
518,324	6,46
518,671	6,45
519,018	6,45
519,365	6,45
519,711	6,46
520,058	6,46
520,405	6,45
520,752	6,45
521,099	6,45
521,445	6,45
521,792	6,45
522,138	6,45
522,485	6,46
522,832	6,46
523,178	6,46
523,524	6,46
523,871	6,47
524,217	6,45
524,563	6,4
524,91	6,34
525,256	6,27
525,602	6,23
525,948	6,22
526,294	6,23
526,64	6,24
526,986	6,25
527,332	6,25
527,678	6,27
528,024	6,29
528,37	6,3
528,716	6,3
529,061	6,31
529,407	6,31
529,753	6,3
530,098	6,29
530,444	6,29
530,789	6,29
531,135	6,29
531,48	6,29
531,826	6,32
532,171	6,37
532,516	6,42
532,862	6,46
533,207	6,48
533,552	6,49
533,897	6,49
534,242	6,49
534,587	6,5
534,932	6,49
535,277	6,48
535,622	6,48
535,967	6,5
536,312	6,51
536,657	6,51
537,001	6,54
537,346	6,55
537,691	6,52
538,035	6,47
538,38	6,45
538,724	6,44
539,069	6,43
539,413	6,44
539,758	6,44
540,102	6,46
540,446	6,47
540,791	6,48
541,135	6,48
541,479	6,49
541,823	6,48
542,167	6,47
542,512	6,48
542,856	6,46
543,2	6,44
543,543	6,44
543,887	6,46
544,231	6,47
544,575	6,5
544,919	6,53
545,262	6,59
545,606	6,63
545,95	6,65
546,293	6,66
546,637	6,67
546,98	6,67
547,324	6,65
547,667	6,67
548,011	6,67
548,354	6,67
548,697	6,66
549,04	6,63
549,384	6,62
549,727	6,6
550,07	6,61
550,413	6,61
550,756	6,61
551,099	6,6
551,442	6,6
551,785	6,59
552,128	6,59
552,47	6,57
552,813	6,56
553,156	6,56
553,499	6,53
553,841	6,51
554,184	6,5
554,526	6,49
554,869	6,46
555,211	6,43
555,554	6,41
555,896	6,4
556,238	6,39
556,581	6,37
556,923	6,34
557,265	6,33
557,607	6,33
557,949	6,32
558,291	6,3
558,633	6,28
558,975	6,26
559,317	6,25
559,659	6,22
560,001	6,19
560,343	6,17
560,685	6,16
561,026	6,16
561,368	6,15
561,71	6,11
562,051	6,08
562,393	6,08
562,734	6,06
563,076	6,05
563,417	6,04
563,759	6,05
564,1	6,05
564,441	6,06
564,782	6,05
565,124	6,04
565,465	6,04
565,806	6,04
566,147	6,01
566,488	5,97
566,829	5,96
567,17	5,96
567,511	5,94
567,851	5,93
568,192	5,91
568,533	5,89
568,874	5,9
569,214	5,92
569,555	5,89
569,895	5,89
570,236	5,89
570,576	5,88
570,917	5,86
571,257	5,83
571,598	5,81
571,938	5,78
572,278	5,77
572,618	5,75
572,959	5,75
573,299	5,76
573,639	5,77
573,979	5,79
574,319	5,76
574,659	5,75
574,999	5,73
575,339	5,73
575,678	5,74
576,018	5,72
576,358	5,69
576,698	5,67
577,037	5,65
577,377	5,62
577,716	5,59
578,056	5,59
578,395	5,58
578,735	5,58
579,074	5,58
579,413	5,54
579,753	5,53
580,092	5,48
580,431	5,45
580,77	5,43
581,109	5,39
581,448	5,38
581,787	5,35
582,126	5,34
582,465	5,32
582,804	5,27
583,143	5,27
583,482	5,27
583,82	5,27
584,159	5,28
584,498	5,28
584,836	5,29
585,175	5,29
585,514	5,28
585,852	5,28
586,19	5,28
586,529	5,28
586,867	5,29
587,205	5,29
587,544	5,3
587,882	5,3
588,22	5,31
588,558	5,32
588,896	5,34
589,234	5,33
589,572	5,31
589,91	5,31
590,248	5,29
590,586	5,29
590,924	5,3
591,262	5,3
591,599	5,3
591,937	5,3
592,275	5,3
592,612	5,31
592,95	5,31
593,287	5,3
593,625	5,3
593,962	5,28
594,299	5,31
594,637	5,34
594,974	5,37
595,311	5,38
595,648	5,4
595,985	5,43
596,322	5,46
596,659	5,49
596,996	5,51
597,333	5,52
597,67	5,51
598,007	5,5
598,344	5,49
598,681	5,5
599,017	5,51
599,354	5,51
599,691	5,5
600,027	5,49
600,364	5,5
600,7	5,53
601,037	5,55
601,373	5,55
601,71	5,55
602,046	5,55
602,382	5,53
602,718	5,55
603,054	5,52
603,391	5,54
603,727	5,55
604,063	5,56
604,399	5,59
604,735	5,62
605,071	5,63
605,406	5,63
605,742	5,63
606,078	5,65
606,414	5,66
606,749	5,67
607,085	5,71
607,421	5,74
607,756	5,74
608,092	5,74
608,427	5,77
608,762	5,78
609,098	5,76
609,433	5,76
609,768	5,73
610,104	5,73
610,439	5,69
610,774	5,67
611,109	5,66
611,444	5,64
611,779	5,62
612,114	5,63
612,449	5,65
612,784	5,63
613,118	5,61
613,453	5,59
613,788	5,57
614,123	5,52
614,457	5,48
614,792	5,46
615,126	5,43
615,461	5,37
615,795	5,33
616,13	5,31
616,464	5,3
616,798	5,29
617,132	5,32
617,467	5,33
617,801	5,35
618,135	5,36
618,469	5,35
618,803	5,36
619,137	5,35
619,471	5,35
619,805	5,38
620,139	5,41
620,472	5,43
620,806	5,42
621,14	5,4
621,473	5,39
621,807	5,37
622,141	5,37
622,474	5,38
622,808	5,38
623,141	5,35
623,474	5,38
623,808	5,39
624,141	5,4
624,474	5,42
624,807	5,45
625,141	5,44
625,474	5,48
625,807	5,5
626,14	5,52
626,473	5,53
626,806	5,53
627,138	5,54
627,471	5,53
627,804	5,56
628,137	5,61
628,469	5,63
628,802	5,65
629,135	5,67
629,467	5,69
629,8	5,68
630,132	5,71
630,465	5,71
630,797	5,71
631,129	5,71
631,461	5,71
631,794	5,69
632,126	5,69
632,458	5,7
632,79	5,71
633,122	5,7
633,454	5,7
633,786	5,69
634,118	5,66
634,45	5,68
634,781	5,67
635,113	5,65
635,445	5,66
635,777	5,65
636,108	5,63
636,44	5,63
636,771	5,62
637,103	5,6
637,434	5,6
637,765	5,58
638,097	5,58
638,428	5,55
638,759	5,53
639,09	5,54
639,422	5,51
639,753	5,49
640,084	5,46
640,415	5,46
640,746	5,47
641,077	5,49
641,407	5,5
641,738	5,52
642,069	5,52
642,4	5,53
642,73	5,56
643,061	5,59
643,392	5,59
643,722	5,63
644,053	5,66
644,383	5,68
644,713	5,7
645,044	5,68
645,374	5,68
645,704	5,69
646,034	5,68
646,365	5,68
646,695	5,64
647,025	5,66
647,355	5,67
647,685	5,68
648,015	5,66
648,344	5,65
648,674	5,65
649,004	5,67
649,334	5,65
649,663	5,66
649,993	5,67
650,323	5,7
650,652	5,69
650,982	5,71
651,311	5,69
651,64	5,67
651,97	5,69
652,299	5,7
652,628	5,75
652,958	5,76
653,287	5,79
653,616	5,82
653,945	5,84
654,274	5,83
654,603	5,8
654,932	5,79
655,261	5,8
655,589	5,79
655,918	5,81
656,247	5,85
656,576	5,83
656,904	5,85
657,233	5,86
657,561	5,9
657,89	5,95
658,218	6
658,547	6,02
658,875	6,01
659,203	6
659,532	5,97
659,86	5,96
660,188	5,95
660,516	5,99
660,844	6,02
661,172	6,08
661,5	6,13
661,828	6,17
662,156	6,17
662,484	6,19
662,811	6,19
663,139	6,17
663,467	6,16
663,794	6,14
664,122	6,13
664,45	6,06
664,777	5,97
