Data from zc74019_5_Reflection_00001.txt Node
Date: Thu Mar 12 14:45:16 ART 2020
User: Ana
Spectrometer: USB2E3644
Trigger mode: 4
Integration Time (sec): 5,000000E-2
Scans to average: 10
Electric dark correction enabled: true
Nonlinearity correction enabled: false
Boxcar width: 10
XAxis mode: Wavelengths
Number of Pixels in Spectrum: 2048
>>>>>Begin Spectral Data<<<<<
178,315	108,51
178,696	93,69
179,076	69,73
179,457	59,81
179,838	72,36
180,218	87,83
180,599	44,44
180,979	96,55
181,36	64,44
181,74	124,6
182,121	137,18
182,501	165,41
182,881	163,93
183,262	152,1
183,642	148,99
184,022	143,19
184,402	139,58
184,783	139,63
185,163	130,99
185,543	125,88
185,923	127,63
186,303	131,15
186,683	130,79
187,063	128,17
187,443	130,48
187,823	138,81
188,203	144,85
188,583	147,41
188,963	148,66
189,343	147,61
189,723	146,79
190,102	147,31
190,482	143,65
190,862	141,86
191,242	141,76
191,621	141,87
192,001	140,98
192,38	141,11
192,76	138,35
193,14	135,9
193,519	135,82
193,898	135,97
194,278	134,87
194,657	132,19
195,037	129,75
195,416	126,81
195,795	126,24
196,175	126,75
196,554	126,83
196,933	127,6
197,312	128,86
197,692	129,01
198,071	128,32
198,45	127,26
198,829	127,28
199,208	127,98
199,587	128,51
199,966	127,03
200,345	125,47
200,724	127,68
201,103	130,26
201,482	131,1
201,86	130,17
202,239	129,07
202,618	129,25
202,997	129,16
203,375	128,84
203,754	127,75
204,133	126,47
204,511	124,62
204,89	123,69
205,269	123,87
205,647	123,55
206,026	124,96
206,404	129,33
206,782	131,53
207,161	133,72
207,539	134,71
207,918	136,41
208,296	137,34
208,674	136,14
209,052	135,98
209,431	138,04
209,809	140,8
210,187	142,62
210,565	142,83
210,943	143,95
211,321	145,23
211,699	145,51
212,077	144,01
212,455	144,02
212,833	146,27
213,211	145,93
213,589	146,93
213,967	144,66
214,345	137,69
214,722	129,96
215,1	125,1
215,478	122,61
215,855	122,31
216,233	122,82
216,611	121
216,988	119,03
217,366	116,77
217,743	116,89
218,121	118,03
218,498	119
218,876	119,36
219,253	120,5
219,631	122,05
220,008	124,87
220,385	126,29
220,762	124,7
221,14	123,32
221,517	122,28
221,894	122,44
222,271	125,36
222,648	131,82
223,025	135,56
223,402	136,28
223,78	136,41
224,157	138,65
224,533	144,77
224,91	153,8
225,287	161,68
225,664	165,86
226,041	171,09
226,418	175,3
226,795	180,24
227,171	188,99
227,548	194,88
227,925	197,26
228,301	204,34
228,678	207,03
229,055	209,1
229,431	215,72
229,808	222,56
230,184	226,98
230,561	235,57
230,937	248,49
231,313	262,73
231,69	267,95
232,066	266,86
232,442	253,48
232,819	243,03
233,195	235,56
233,571	235,04
233,947	230,14
234,323	230,93
234,699	233,5
235,075	232,69
235,451	236,64
235,827	242,05
236,203	249,91
236,579	265,82
236,955	289,19
237,331	313,38
237,707	360,4
238,083	446,82
238,459	594,31
238,834	1055,56
239,21	6584,44
239,586	-1521,03
239,961	-885,55
240,337	-638,4
240,713	-549,54
241,088	-510,44
241,464	-477,31
241,839	-437,99
242,215	-370,76
242,59	-293,86
242,965	-207,45
243,341	-146,39
243,716	-108,76
244,091	-90,2
244,467	-79,64
244,842	-72,22
245,217	-66,75
245,592	-63,82
245,967	-63,53
246,343	-62,35
246,718	-61,63
247,093	-62,07
247,468	-62,57
247,843	-61,04
248,218	-58,5
248,593	-54,73
248,967	-50,99
249,342	-49,43
249,717	-48,52
250,092	-47,9
250,467	-48,6
250,841	-51,91
251,216	-58,01
251,591	-67,01
251,965	-75,05
252,34	-81,24
252,714	-88,67
253,089	-94,14
253,463	-97,16
253,838	-95,61
254,212	-92,73
254,587	-89,26
254,961	-81,86
255,335	-72,66
255,71	-62,75
256,084	-51,73
256,458	-43,61
256,832	-38,2
257,206	-35
257,581	-33,03
257,955	-31,93
258,329	-30,69
258,703	-29,07
259,077	-27,84
259,451	-26,72
259,825	-26,52
260,199	-26,72
260,572	-26,11
260,946	-25,47
261,32	-24,84
261,694	-24,27
262,068	-23,85
262,441	-23,35
262,815	-23,16
263,189	-22,83
263,562	-23,12
263,936	-24,55
264,309	-26,69
264,683	-28,96
265,056	-30,03
265,43	-30,61
265,803	-30,4
266,176	-29,91
266,55	-29,52
266,923	-28,9
267,296	-28,1
267,67	-26,71
268,043	-25,3
268,416	-24,07
268,789	-23,15
269,162	-22,01
269,535	-20,8
269,908	-19,95
270,281	-19,64
270,654	-19,63
271,027	-19,98
271,4	-20,1
271,773	-20,13
272,146	-20,15
272,519	-20,02
272,891	-19,87
273,264	-19,71
273,637	-19,54
274,01	-19,36
274,382	-19,73
274,755	-19,83
275,127	-20,02
275,5	-20,44
275,872	-20,71
276,245	-20,94
276,617	-21,46
276,99	-22,24
277,362	-23,18
277,734	-23,57
278,107	-23,59
278,479	-23,5
278,851	-23,28
279,223	-22,92
279,596	-22,79
279,968	-22,79
280,34	-22,44
280,712	-21,88
281,084	-21,01
281,456	-20,2
281,828	-19,28
282,2	-17,92
282,572	-17,17
282,944	-16,68
283,315	-16,23
283,687	-15,87
284,059	-15,58
284,431	-15,18
284,802	-14,69
285,174	-14,1
285,546	-13,62
285,917	-13,04
286,289	-12,55
286,66	-12,19
287,032	-11,98
287,403	-11,78
287,775	-11,69
288,146	-11,95
288,518	-12,31
288,889	-12,56
289,26	-12,81
289,632	-13,23
290,003	-13,83
290,374	-13,9
290,745	-13,85
291,116	-13,9
291,487	-13,89
291,858	-13,91
292,229	-13,99
292,6	-13,87
292,971	-13,52
293,342	-13,35
293,713	-13,07
294,084	-12,71
294,455	-12,29
294,826	-11,97
295,196	-11,84
295,567	-11,78
295,938	-11,5
296,308	-11,21
296,679	-10,9
297,05	-10,6
297,42	-10,29
297,791	-9,81
298,161	-9,67
298,532	-9,46
298,902	-9,14
299,272	-8,93
299,643	-8,83
300,013	-8,43
300,383	-8,18
300,754	-8,25
301,124	-8,31
301,494	-8,54
301,864	-8,79
302,234	-9,08
302,604	-9,31
302,974	-9,29
303,344	-9,12
303,714	-8,94
304,084	-8,62
304,454	-8,52
304,824	-8,54
305,194	-8,61
305,563	-8,74
305,933	-8,7
306,303	-8,55
306,673	-8,39
307,042	-8,18
307,412	-7,73
307,781	-7,46
308,151	-7,3
308,521	-7,14
308,89	-6,96
309,259	-6,89
309,629	-6,85
309,998	-6,79
310,368	-6,81
310,737	-6,81
311,106	-6,74
311,475	-6,67
311,845	-6,78
312,214	-6,7
312,583	-6,57
312,952	-6,61
313,321	-6,63
313,69	-6,45
314,059	-6,38
314,428	-6,46
314,797	-6,56
315,166	-6,85
315,535	-7,14
315,904	-7,47
316,272	-7,75
316,641	-7,85
317,01	-7,72
317,379	-7,59
317,747	-7,34
318,116	-6,97
318,484	-6,88
318,853	-6,92
319,221	-6,92
319,59	-6,89
319,958	-6,83
320,327	-6,71
320,695	-6,49
321,063	-6,24
321,432	-6,08
321,8	-5,99
322,168	-5,92
322,536	-5,98
322,905	-5,87
323,273	-5,72
323,641	-5,49
324,009	-5,28
324,377	-5,24
324,745	-5,21
325,113	-5,06
325,481	-4,92
325,849	-4,85
326,216	-4,57
326,584	-4,29
326,952	-4,11
327,32	-3,88
327,687	-3,8
328,055	-3,73
328,423	-3,65
328,79	-3,72
329,158	-3,86
329,525	-3,86
329,893	-3,74
330,26	-3,51
330,628	-3,41
330,995	-3,31
331,362	-3,28
331,73	-3,22
332,097	-3,07
332,464	-2,95
332,831	-2,89
333,199	-2,93
333,566	-2,94
333,933	-2,93
334,3	-2,91
334,667	-2,91
335,034	-2,93
335,401	-2,86
335,768	-2,82
336,135	-2,76
336,502	-2,58
336,868	-2,44
337,235	-2,35
337,602	-2,3
337,969	-2,27
338,335	-2,14
338,702	-1,97
339,069	-1,89
339,435	-1,84
339,802	-1,76
340,168	-1,75
340,535	-1,65
340,901	-1,59
341,267	-1,5
341,634	-1,47
342	-1,45
342,366	-1,35
342,733	-1,31
343,099	-1,24
343,465	-1,23
343,831	-1,19
344,197	-1,18
344,563	-1,21
344,929	-1,25
345,295	-1,12
345,661	-0,98
346,027	-0,91
346,393	-0,96
346,759	-0,92
347,125	-0,84
347,491	-0,8
347,856	-0,78
348,222	-0,84
348,588	-0,74
348,953	-0,66
349,319	-0,63
349,684	-0,52
350,05	-0,48
350,415	-0,47
350,781	-0,49
351,146	-0,47
351,512	-0,47
351,877	-0,48
352,242	-0,45
352,608	-0,38
352,973	-0,4
353,338	-0,42
353,703	-0,42
354,068	-0,38
354,433	-0,34
354,798	-0,34
355,164	-0,3
355,528	-0,24
355,893	-0,18
356,258	-0,18
356,623	-0,13
356,988	-0,03
357,353	-0,02
357,718	0,01
358,082	0,07
358,447	0,14
358,812	0,28
359,176	0,39
359,541	0,53
359,905	0,62
360,27	0,7
360,634	0,74
360,999	0,82
361,363	0,88
361,728	0,92
362,092	0,96
362,456	0,98
362,821	1
363,185	1,02
363,549	1,06
363,913	1,08
364,277	1,08
364,641	1,07
365,005	1,13
365,369	1,22
365,733	1,33
366,097	1,41
366,461	1,45
366,825	1,52
367,189	1,55
367,553	1,6
367,916	1,7
368,28	1,79
368,644	1,8
369,007	1,83
369,371	1,92
369,734	2,02
370,098	2,14
370,461	2,21
370,825	2,3
371,188	2,41
371,552	2,53
371,915	2,59
372,278	2,71
372,642	2,79
373,005	2,87
373,368	2,96
373,731	3,07
374,094	3,16
374,457	3,22
374,82	3,29
375,183	3,35
375,546	3,4
375,909	3,43
376,272	3,54
376,635	3,62
376,998	3,7
377,361	3,78
377,723	3,85
378,086	3,94
378,449	4
378,811	4,05
379,174	4,09
379,537	4,17
379,899	4,2
380,262	4,2
380,624	4,2
380,987	4,21
381,349	4,26
381,711	4,32
382,074	4,38
382,436	4,47
382,798	4,56
383,16	4,58
383,522	4,63
383,884	4,66
384,247	4,69
384,609	4,71
384,971	4,71
385,333	4,7
385,695	4,73
386,056	4,76
386,418	4,75
386,78	4,74
387,142	4,71
387,504	4,72
387,865	4,75
388,227	4,79
388,589	4,82
388,95	4,8
389,312	4,75
389,673	4,74
390,035	4,73
390,396	4,7
390,758	4,71
391,119	4,72
391,48	4,73
391,842	4,75
392,203	4,76
392,564	4,77
392,925	4,81
393,286	4,83
393,648	4,86
394,009	4,91
394,37	4,94
394,731	5
395,092	5,02
395,452	5,05
395,813	5,07
396,174	5,08
396,535	5,09
396,896	5,09
397,257	5,12
397,617	5,14
397,978	5,16
398,338	5,18
398,699	5,21
399,06	5,25
399,42	5,26
399,781	5,27
400,141	5,29
400,501	5,29
400,862	5,27
401,222	5,28
401,582	5,27
401,943	5,3
402,303	5,31
402,663	5,31
403,023	5,31
403,383	5,31
403,743	5,32
404,103	5,34
404,463	5,39
404,823	5,41
405,183	5,41
405,543	5,44
405,903	5,44
406,262	5,45
406,622	5,41
406,982	5,41
407,342	5,43
407,701	5,44
408,061	5,45
408,42	5,48
408,78	5,47
409,139	5,47
409,499	5,43
409,858	5,42
410,217	5,46
410,577	5,45
410,936	5,45
411,295	5,44
411,655	5,42
412,014	5,39
412,373	5,35
412,732	5,32
413,091	5,28
413,45	5,25
413,809	5,21
414,168	5,18
414,527	5,14
414,886	5,09
415,245	5,04
415,603	4,99
415,962	4,96
416,321	4,94
416,679	4,9
417,038	4,85
417,397	4,81
417,755	4,76
418,114	4,75
418,472	4,73
418,831	4,73
419,189	4,72
419,547	4,72
419,906	4,72
420,264	4,7
420,622	4,68
420,981	4,68
421,339	4,69
421,697	4,69
422,055	4,7
422,413	4,72
422,771	4,75
423,129	4,77
423,487	4,79
423,845	4,82
424,203	4,84
424,56	4,89
424,918	4,93
425,276	4,99
425,634	5,02
425,991	5,05
426,349	5,07
426,707	5,09
427,064	5,12
427,422	5,15
427,779	5,2
428,137	5,26
428,494	5,31
428,851	5,34
429,209	5,38
429,566	5,37
429,923	5,37
430,28	5,36
430,637	5,35
430,995	5,35
431,352	5,33
431,709	5,32
432,066	5,33
432,423	5,32
432,78	5,31
433,137	5,31
433,493	5,3
433,85	5,33
434,207	5,33
434,564	5,31
434,92	5,32
435,277	5,31
435,634	5,29
435,99	5,27
436,347	5,26
436,703	5,26
437,06	5,25
437,416	5,25
437,773	5,24
438,129	5,24
438,485	5,24
438,841	5,25
439,198	5,26
439,554	5,25
439,91	5,28
440,266	5,29
440,622	5,29
440,978	5,29
441,334	5,26
441,69	5,24
442,046	5,25
442,402	5,24
442,758	5,24
443,113	5,24
443,469	5,23
443,825	5,24
444,181	5,25
444,536	5,26
444,892	5,27
445,247	5,29
445,603	5,3
445,958	5,31
446,314	5,32
446,669	5,33
447,025	5,35
447,38	5,35
447,735	5,35
448,09	5,36
448,446	5,38
448,801	5,4
449,156	5,43
449,511	5,45
449,866	5,49
450,221	5,53
450,576	5,56
450,931	5,62
451,286	5,66
451,641	5,7
451,995	5,75
452,35	5,79
452,705	5,81
453,06	5,82
453,414	5,84
453,769	5,84
454,123	5,85
454,478	5,84
454,832	5,85
455,187	5,83
455,541	5,82
455,896	5,8
456,25	5,8
456,604	5,78
456,958	5,77
457,313	5,77
457,667	5,75
458,021	5,76
458,375	5,76
458,729	5,77
459,083	5,78
459,437	5,78
459,791	5,78
460,145	5,79
460,499	5,79
460,852	5,8
461,206	5,82
461,56	5,8
461,914	5,81
462,267	5,81
462,621	5,84
462,974	5,86
463,328	5,88
463,681	5,9
464,035	5,94
464,388	5,96
464,742	5,97
465,095	6
465,448	6,01
465,801	6,02
466,155	6,01
466,508	6,01
466,861	5,99
467,214	6
467,567	6,01
467,92	6,02
468,273	6,02
468,626	6,02
468,979	6,04
469,332	6,05
469,684	6,06
470,037	6,06
470,39	6,08
470,743	6,1
471,095	6,13
471,448	6,14
471,8	6,16
472,153	6,19
472,505	6,21
472,858	6,21
473,21	6,22
473,562	6,25
473,915	6,25
474,267	6,28
474,619	6,3
474,971	6,28
475,324	6,28
475,676	6,31
476,028	6,32
476,38	6,35
476,732	6,35
477,084	6,36
477,436	6,35
477,787	6,35
478,139	6,33
478,491	6,34
478,843	6,32
479,195	6,31
479,546	6,29
479,898	6,26
480,249	6,23
480,601	6,2
480,952	6,18
481,304	6,17
481,655	6,15
482,007	6,14
482,358	6,15
482,709	6,15
483,061	6,13
483,412	6,14
483,763	6,14
484,114	6,15
484,465	6,15
484,816	6,16
485,167	6,16
485,518	6,16
485,869	6,16
486,22	6,17
486,571	6,17
486,922	6,18
487,272	6,19
487,623	6,22
487,974	6,26
488,324	6,28
488,675	6,31
489,025	6,33
489,376	6,35
489,726	6,37
490,077	6,39
490,427	6,41
490,778	6,43
491,128	6,45
491,478	6,47
491,828	6,51
492,179	6,53
492,529	6,56
492,879	6,6
493,229	6,64
493,579	6,66
493,929	6,7
494,279	6,73
494,629	6,75
494,979	6,79
495,328	6,83
495,678	6,87
496,028	6,91
496,378	6,95
496,727	6,99
497,077	7,02
497,426	7,05
497,776	7,06
498,125	7,08
498,475	7,09
498,824	7,11
499,174	7,14
499,523	7,16
499,872	7,18
500,221	7,2
500,571	7,22
500,92	7,23
501,269	7,24
501,618	7,24
501,967	7,28
502,316	7,28
502,665	7,28
503,014	7,29
503,363	7,32
503,711	7,33
504,06	7,35
504,409	7,37
504,758	7,39
505,106	7,42
505,455	7,42
505,803	7,44
506,152	7,44
506,5	7,44
506,849	7,45
507,197	7,47
507,546	7,49
507,894	7,51
508,242	7,54
508,59	7,54
508,939	7,56
509,287	7,57
509,635	7,58
509,983	7,62
510,331	7,64
510,679	7,66
511,027	7,68
511,375	7,7
511,723	7,71
512,07	7,72
512,418	7,75
512,766	7,78
513,114	7,79
513,461	7,82
513,809	7,86
514,156	7,87
514,504	7,88
514,851	7,88
515,199	7,87
515,546	7,89
515,893	7,92
516,241	7,95
516,588	7,97
516,935	7,99
517,282	8,02
517,63	8,04
517,977	8,04
518,324	8,06
518,671	8,08
519,018	8,11
519,365	8,13
519,711	8,14
520,058	8,16
520,405	8,19
520,752	8,2
521,099	8,23
521,445	8,26
521,792	8,3
522,138	8,32
522,485	8,36
522,832	8,38
523,178	8,41
523,524	8,41
523,871	8,43
524,217	8,46
524,563	8,47
524,91	8,48
525,256	8,48
525,602	8,5
525,948	8,51
526,294	8,51
526,64	8,51
526,986	8,51
527,332	8,5
527,678	8,51
528,024	8,52
528,37	8,54
528,716	8,55
529,061	8,56
529,407	8,58
529,753	8,6
530,098	8,61
530,444	8,63
530,789	8,65
531,135	8,66
531,48	8,67
531,826	8,69
532,171	8,72
532,516	8,75
532,862	8,78
533,207	8,82
533,552	8,87
533,897	8,91
534,242	8,94
534,587	8,99
534,932	9,02
535,277	9,05
535,622	9,07
535,967	9,11
536,312	9,13
536,657	9,17
537,001	9,21
537,346	9,26
537,691	9,3
538,035	9,34
538,38	9,38
538,724	9,4
539,069	9,41
539,413	9,44
539,758	9,47
540,102	9,51
540,446	9,52
540,791	9,52
541,135	9,54
541,479	9,57
541,823	9,59
542,167	9,61
542,512	9,63
542,856	9,63
543,2	9,65
543,543	9,67
543,887	9,68
544,231	9,71
544,575	9,73
544,919	9,76
545,262	9,8
545,606	9,84
545,95	9,87
546,293	9,91
546,637	9,93
546,98	9,97
547,324	9,99
547,667	10,06
548,011	10,11
548,354	10,15
548,697	10,18
549,04	10,2
549,384	10,23
549,727	10,24
550,07	10,28
550,413	10,29
550,756	10,32
551,099	10,36
551,442	10,35
551,785	10,37
552,128	10,42
552,47	10,44
552,813	10,46
553,156	10,48
553,499	10,52
553,841	10,55
554,184	10,59
554,526	10,61
554,869	10,58
555,211	10,59
555,554	10,58
555,896	10,6
556,238	10,64
556,581	10,62
556,923	10,61
557,265	10,61
557,607	10,62
557,949	10,64
558,291	10,66
558,633	10,71
558,975	10,71
559,317	10,72
559,659	10,73
560,001	10,75
560,343	10,77
560,685	10,77
561,026	10,78
561,368	10,77
561,71	10,78
562,051	10,79
562,393	10,81
562,734	10,82
563,076	10,83
563,417	10,86
563,759	10,91
564,1	10,95
564,441	11
564,782	11,02
565,124	11,02
565,465	11,02
565,806	11,05
566,147	11,09
566,488	11,08
566,829	11,1
567,17	11,11
567,511	11,14
567,851	11,16
568,192	11,19
568,533	11,21
568,874	11,24
569,214	11,3
569,555	11,31
569,895	11,36
570,236	11,38
570,576	11,38
570,917	11,39
571,257	11,41
571,598	11,42
571,938	11,44
572,278	11,47
572,618	11,52
572,959	11,54
573,299	11,56
573,639	11,58
573,979	11,6
574,319	11,62
574,659	11,66
574,999	11,67
575,339	11,68
575,678	11,71
576,018	11,72
576,358	11,72
576,698	11,74
577,037	11,77
577,377	11,79
577,716	11,82
578,056	11,84
578,395	11,84
578,735	11,86
579,074	11,88
579,413	11,9
579,753	11,88
580,092	11,86
580,431	11,87
580,77	11,9
581,109	11,92
581,448	11,91
581,787	11,92
582,126	11,96
582,465	11,98
582,804	11,99
583,143	12,04
583,482	12,06
583,82	12,08
584,159	12,1
584,498	12,12
584,836	12,15
585,175	12,2
585,514	12,25
585,852	12,29
586,19	12,32
586,529	12,35
586,867	12,4
587,205	12,46
587,544	12,52
587,882	12,56
588,22	12,59
588,558	12,64
588,896	12,67
589,234	12,68
589,572	12,7
589,91	12,72
590,248	12,75
590,586	12,8
590,924	12,86
591,262	12,92
591,599	12,95
591,937	12,99
592,275	13,02
592,612	13,09
592,95	13,15
593,287	13,22
593,625	13,28
593,962	13,35
594,299	13,44
594,637	13,48
594,974	13,53
595,311	13,57
595,648	13,65
595,985	13,7
596,322	13,74
596,659	13,8
596,996	13,85
597,333	13,88
597,67	13,89
598,007	13,9
598,344	13,92
598,681	13,98
599,017	14,01
599,354	14,04
599,691	14,06
600,027	14,12
600,364	14,13
600,7	14,22
601,037	14,29
601,373	14,32
601,71	14,4
602,046	14,48
602,382	14,54
602,718	14,55
603,054	14,56
603,391	14,61
603,727	14,62
604,063	14,67
604,399	14,7
604,735	14,76
605,071	14,8
605,406	14,84
605,742	14,88
606,078	14,94
606,414	15,03
606,749	15,08
607,085	15,11
607,421	15,16
607,756	15,17
608,092	15,18
608,427	15,21
608,762	15,22
609,098	15,19
609,433	15,21
609,768	15,25
610,104	15,31
610,439	15,32
610,774	15,36
611,109	15,35
611,444	15,37
611,779	15,36
612,114	15,35
612,449	15,4
612,784	15,4
613,118	15,39
613,453	15,32
613,788	15,32
614,123	15,31
614,457	15,33
614,792	15,37
615,126	15,41
615,461	15,42
615,795	15,4
616,13	15,42
616,464	15,42
616,798	15,43
617,132	15,39
617,467	15,4
617,801	15,43
618,135	15,48
618,469	15,53
618,803	15,59
619,137	15,69
619,471	15,72
619,805	15,76
620,139	15,84
620,472	15,95
620,806	15,97
621,14	16,04
621,473	16,09
621,807	16,1
622,141	16,15
622,474	16,21
622,808	16,28
623,141	16,39
623,474	16,47
623,808	16,56
624,141	16,65
624,474	16,73
624,807	16,78
625,141	16,82
625,474	16,85
625,807	16,9
626,14	16,91
626,473	16,96
626,806	17,01
627,138	17,04
627,471	17,04
627,804	17,08
628,137	17,11
628,469	17,12
628,802	17,15
629,135	17,13
629,467	17,13
629,8	17,19
630,132	17,21
630,465	17,23
630,797	17,24
631,129	17,26
631,461	17,31
631,794	17,36
632,126	17,39
632,458	17,44
632,79	17,51
633,122	17,53
633,454	17,53
633,786	17,56
634,118	17,58
634,45	17,64
634,781	17,69
635,113	17,69
635,445	17,71
635,777	17,77
636,108	17,79
636,44	17,84
636,771	17,83
637,103	17,83
637,434	17,87
637,765	17,91
638,097	17,97
638,428	17,96
638,759	17,99
639,09	18,05
639,422	18,07
639,753	18,09
640,084	18,1
640,415	18,14
640,746	18,22
641,077	18,25
641,407	18,28
641,738	18,31
642,069	18,37
642,4	18,41
642,73	18,43
643,061	18,5
643,392	18,54
643,722	18,6
644,053	18,67
644,383	18,73
644,713	18,8
645,044	18,83
645,374	18,89
645,704	18,95
646,034	18,99
646,365	18,98
646,695	19,02
647,025	19,13
647,355	19,2
647,685	19,2
648,015	19,23
648,344	19,29
648,674	19,28
649,004	19,34
649,334	19,42
649,663	19,45
649,993	19,5
650,323	19,59
650,652	19,63
650,982	19,64
651,311	19,66
651,64	19,64
651,97	19,68
652,299	19,7
652,628	19,73
652,958	19,75
653,287	19,83
653,616	19,84
653,945	19,84
654,274	19,85
654,603	19,88
654,932	19,96
655,261	19,98
655,589	20,05
655,918	20,11
656,247	20,18
