Data from zc74051_2_Reflection_00003.txt Node
Date: Thu Mar 12 15:04:10 ART 2020
User: Ana
Spectrometer: USB2E3644
Trigger mode: 4
Integration Time (sec): 5,000000E-2
Scans to average: 10
Electric dark correction enabled: true
Nonlinearity correction enabled: false
Boxcar width: 10
XAxis mode: Wavelengths
Number of Pixels in Spectrum: 2048
>>>>>Begin Spectral Data<<<<<
178,315	124,85
178,696	140,09
179,076	158,28
179,457	150,75
179,838	133,97
180,218	189,9
180,599	-397,22
180,979	110,53
181,36	238,89
181,74	149,49
182,121	124,07
182,501	110,14
182,881	106,88
183,262	106,34
183,642	106,68
184,022	108,31
184,402	108,39
184,783	106,87
185,163	106,99
185,543	109,12
185,923	110,78
186,303	112,66
186,683	114,76
187,063	114,03
187,443	112,22
187,823	109,71
188,203	108,03
188,583	108,35
188,963	106,77
189,343	105,72
189,723	105,18
190,102	104,38
190,482	102,8
190,862	101,51
191,242	101,02
191,621	102
192,001	102,26
192,38	101,65
192,76	102,43
193,14	103,87
193,519	104,99
193,898	105,17
194,278	105,27
194,657	105,91
195,037	107,5
195,416	107,92
195,795	108,59
196,175	110,17
196,554	110,77
196,933	112,16
197,312	114,31
197,692	116,18
198,071	118,75
198,45	121,99
198,829	124,47
199,208	126,22
199,587	127,51
199,966	128,42
200,345	129,44
200,724	129,97
201,103	129,39
201,482	128,77
201,86	128,39
202,239	127,79
202,618	127,42
202,997	128,24
203,375	129,49
203,754	130,02
204,133	130,66
204,511	130,78
204,89	129,87
205,269	128,03
205,647	126,07
206,026	124,32
206,404	122,87
206,782	121,54
207,161	119,88
207,539	117,91
207,918	116,4
208,296	115,44
208,674	114,86
209,052	115,26
209,431	115,59
209,809	116,25
210,187	117,36
210,565	117,8
210,943	117,37
211,321	117,27
211,699	117,81
212,077	117,71
212,455	117,4
212,833	117,01
213,211	116,23
213,589	116,27
213,967	116,87
214,345	116,94
214,722	116,78
215,1	117,46
215,478	118,23
215,855	119,27
216,233	120,24
216,611	120,68
216,988	120,2
217,366	119,49
217,743	118,71
218,121	117,41
218,498	116,13
218,876	114,09
219,253	112,32
219,631	109,87
220,008	108,19
220,385	107,24
220,762	107,15
221,14	107,66
221,517	108,21
221,894	107,6
222,271	107,15
222,648	107,44
223,025	107,07
223,402	107,41
223,78	106,67
224,157	105,53
224,533	105,27
224,91	106,12
225,287	107,26
225,664	108,79
226,041	111,21
226,418	113,57
226,795	115,42
227,171	116,94
227,548	119,09
227,925	120,51
228,301	121,44
228,678	121,66
229,055	122,62
229,431	123,85
229,808	125,13
230,184	126,11
230,561	127,67
230,937	129,16
231,313	129,2
231,69	130,2
232,066	133,05
232,442	135,42
232,819	136,51
233,195	136,73
233,571	137,25
233,947	135,96
234,323	135,49
234,699	137,2
235,075	138,84
235,451	141,08
235,827	144,33
236,203	147,78
236,579	152,2
236,955	155,98
237,331	159,72
237,707	166,19
238,083	174,75
238,459	184,92
238,834	201,18
239,21	224,85
239,586	252,91
239,961	276,78
240,337	294,92
240,713	307,72
241,088	322,45
241,464	336,77
241,839	357,66
242,215	392,89
242,59	481,73
242,965	852,63
243,341	-4583,33
243,716	-569,81
244,091	-328,53
244,467	-248,16
244,842	-204,81
245,217	-175,16
245,592	-160
245,967	-157,02
246,343	-152
246,718	-148,86
247,093	-151,81
247,468	-156,23
247,843	-155,28
248,218	-148,01
248,593	-135,52
248,967	-124,07
249,342	-116,77
249,717	-112,36
250,092	-109,08
250,467	-110,4
250,841	-119,04
251,216	-138,8
251,591	-170,18
251,965	-206,08
252,34	-241,25
252,714	-286,56
253,089	-344,46
253,463	-391,12
253,838	-394,14
254,212	-384,9
254,587	-349,96
254,961	-282,21
255,335	-220,11
255,71	-168,07
256,084	-121,6
256,458	-92,23
256,832	-76
257,206	-67,55
257,581	-62,99
257,955	-60,44
258,329	-58
258,703	-54,97
259,077	-52,62
259,451	-50,53
259,825	-49,83
260,199	-49,83
260,572	-48,91
260,946	-48,22
261,32	-47,25
261,694	-45,94
262,068	-45
262,441	-44,15
262,815	-44,37
263,189	-44,05
263,562	-44,88
263,936	-48,32
264,309	-54,41
264,683	-61,06
265,056	-64,72
265,43	-65,97
265,803	-65,22
266,176	-63,55
266,55	-62,37
266,923	-60,93
267,296	-59,08
267,67	-55,89
268,043	-52,97
268,416	-49,69
268,789	-46,47
269,162	-43,42
269,535	-41,02
269,908	-39,19
270,281	-38,26
270,654	-38,02
271,027	-38,74
271,4	-39,12
271,773	-39,18
272,146	-39,07
272,519	-38,79
272,891	-38,96
273,264	-39,37
273,637	-39,46
274,01	-39,58
274,382	-40,56
274,755	-41,19
275,127	-41,89
275,5	-42,69
275,872	-42,93
276,245	-43,29
276,617	-44,29
276,99	-45,49
277,362	-46,48
277,734	-46,9
278,107	-46,67
278,479	-45,62
278,851	-44,51
279,223	-43,83
279,596	-43,05
279,968	-42,36
280,34	-41,59
280,712	-40,46
281,084	-38,75
281,456	-37,3
281,828	-35,64
282,2	-33,11
282,572	-31,06
282,944	-29,43
283,315	-28,52
283,687	-27,89
284,059	-27,69
284,431	-27,51
284,802	-27,02
285,174	-26,63
285,546	-26,37
285,917	-25,99
286,289	-25,66
286,66	-25,32
287,032	-24,85
287,403	-24,58
287,775	-24,4
288,146	-24,61
288,518	-24,83
288,889	-24,89
289,26	-24,94
289,632	-25,42
290,003	-26,18
290,374	-26,81
290,745	-27,24
291,116	-27,26
291,487	-27,2
291,858	-26,99
292,229	-26,74
292,6	-26,36
292,971	-25,57
293,342	-24,57
293,713	-23,43
294,084	-22,55
294,455	-21,69
294,826	-21,12
295,196	-20,82
295,567	-20,86
295,938	-20,56
296,308	-20,14
296,679	-19,79
297,05	-19,41
297,42	-18,96
297,791	-18,5
298,161	-18,37
298,532	-18,08
298,902	-17,82
299,272	-17,6
299,643	-17,35
300,013	-16,86
300,383	-16,59
300,754	-16,62
301,124	-16,91
301,494	-17,36
301,864	-17,74
302,234	-18,12
302,604	-18,29
302,974	-18,32
303,344	-18,09
303,714	-17,84
304,084	-17,51
304,454	-17,25
304,824	-17,01
305,194	-16,92
305,563	-16,84
305,933	-16,4
306,303	-15,98
306,673	-15,45
307,042	-14,87
307,412	-14,31
307,781	-13,78
308,151	-13,39
308,521	-13,15
308,89	-12,9
309,259	-12,89
309,629	-12,86
309,998	-12,76
310,368	-12,67
310,737	-12,43
311,106	-12,17
311,475	-11,91
311,845	-11,86
312,214	-11,79
312,583	-11,79
312,952	-11,8
313,321	-11,68
313,69	-11,4
314,059	-11,41
314,428	-11,66
314,797	-12,01
315,166	-12,44
315,535	-12,84
315,904	-13,23
316,272	-13,47
316,641	-13,63
317,01	-13,58
317,379	-13,49
317,747	-13,24
318,116	-12,95
318,484	-12,81
318,853	-12,77
319,221	-12,83
319,59	-12,9
319,958	-12,86
320,327	-12,74
320,695	-12,51
321,063	-12,24
321,432	-12,07
321,8	-11,7
322,168	-11,32
322,536	-11,09
322,905	-10,59
323,273	-10,17
323,641	-9,78
324,009	-9,4
324,377	-9,12
324,745	-8,75
325,113	-8,35
325,481	-8,17
325,849	-8,09
326,216	-7,88
326,584	-7,58
326,952	-7,28
327,32	-6,89
327,687	-6,69
328,055	-6,35
328,423	-6,05
328,79	-6,02
329,158	-6,11
329,525	-6,16
329,893	-6,07
330,26	-5,84
330,628	-5,71
330,995	-5,6
331,362	-5,62
331,73	-5,65
332,097	-5,54
332,464	-5,38
332,831	-5,25
333,199	-5,08
333,566	-4,75
333,933	-4,47
334,3	-4,31
334,667	-4,16
335,034	-4,08
335,401	-4,04
335,768	-4,06
336,135	-4,05
336,502	-3,9
336,868	-3,74
337,235	-3,62
337,602	-3,58
337,969	-3,5
338,335	-3,41
338,702	-3,22
339,069	-2,98
339,435	-2,85
339,802	-2,73
340,168	-2,73
340,535	-2,66
340,901	-2,7
341,267	-2,79
341,634	-2,8
342	-2,77
342,366	-2,71
342,733	-2,65
343,099	-2,47
343,465	-2,36
343,831	-2,26
344,197	-2,15
344,563	-2,08
344,929	-1,96
345,295	-1,71
345,661	-1,49
346,027	-1,42
346,393	-1,4
346,759	-1,28
347,125	-1,14
347,491	-1,05
347,856	-0,92
348,222	-0,9
348,588	-0,69
348,953	-0,51
349,319	-0,45
349,684	-0,38
350,05	-0,36
350,415	-0,25
350,781	-0,13
351,146	0,04
351,512	0,16
351,877	0,22
352,242	0,33
352,608	0,41
352,973	0,47
353,338	0,56
353,703	0,72
354,068	0,83
354,433	0,91
354,798	1,02
355,164	1,14
355,528	1,25
355,893	1,36
356,258	1,39
356,623	1,51
356,988	1,72
357,353	1,88
357,718	2,05
358,082	2,16
358,447	2,23
358,812	2,28
359,176	2,35
359,541	2,48
359,905	2,58
360,27	2,66
360,634	2,7
360,999	2,76
361,363	2,81
361,728	2,88
362,092	2,96
362,456	3,03
362,821	3,11
363,185	3,19
363,549	3,3
363,913	3,37
364,277	3,39
364,641	3,35
365,005	3,41
365,369	3,47
365,733	3,55
366,097	3,62
366,461	3,71
366,825	3,8
367,189	3,84
367,553	3,94
367,916	4,07
368,28	4,17
368,644	4,2
369,007	4,29
369,371	4,39
369,734	4,49
370,098	4,61
370,461	4,69
370,825	4,74
371,188	4,83
371,552	4,95
371,915	5,03
372,278	5,2
372,642	5,31
373,005	5,41
373,368	5,51
373,731	5,56
374,094	5,64
374,457	5,71
374,82	5,85
375,183	5,93
375,546	6,03
375,909	6,15
376,272	6,29
376,635	6,4
376,998	6,47
377,361	6,54
377,723	6,6
378,086	6,68
378,449	6,76
378,811	6,83
379,174	6,89
379,537	7,01
379,899	7,09
380,262	7,17
380,624	7,27
380,987	7,36
381,349	7,47
381,711	7,56
382,074	7,67
382,436	7,77
382,798	7,9
383,16	7,95
383,522	8,01
383,884	8,06
384,247	8,1
384,609	8,19
384,971	8,25
385,333	8,26
385,695	8,29
386,056	8,33
386,418	8,34
386,78	8,38
387,142	8,39
387,504	8,4
387,865	8,42
388,227	8,41
388,589	8,42
388,95	8,48
389,312	8,52
389,673	8,56
390,035	8,56
390,396	8,54
390,758	8,54
391,119	8,57
391,48	8,6
391,842	8,62
392,203	8,63
392,564	8,66
392,925	8,73
393,286	8,77
393,648	8,8
394,009	8,87
394,37	8,89
394,731	8,93
395,092	8,95
395,452	9,01
395,813	9,05
396,174	9,08
396,535	9,08
396,896	9,09
397,257	9,11
397,617	9,16
397,978	9,17
398,338	9,2
398,699	9,23
399,06	9,28
399,42	9,28
399,781	9,29
400,141	9,3
400,501	9,3
400,862	9,32
401,222	9,34
401,582	9,36
401,943	9,43
402,303	9,46
402,663	9,53
403,023	9,52
403,383	9,56
403,743	9,56
404,103	9,58
404,463	9,62
404,823	9,65
405,183	9,67
405,543	9,72
405,903	9,72
406,262	9,7
406,622	9,67
406,982	9,7
407,342	9,73
407,701	9,75
408,061	9,75
408,42	9,77
408,78	9,82
409,139	9,83
409,499	9,81
409,858	9,81
410,217	9,8
410,577	9,8
410,936	9,79
411,295	9,79
411,655	9,79
412,014	9,78
412,373	9,73
412,732	9,67
413,091	9,65
413,45	9,62
413,809	9,6
414,168	9,56
414,527	9,52
414,886	9,46
415,245	9,43
415,603	9,4
415,962	9,37
416,321	9,33
416,679	9,3
417,038	9,27
417,397	9,27
417,755	9,24
418,114	9,2
418,472	9,19
418,831	9,19
419,189	9,18
419,547	9,17
419,906	9,17
420,264	9,18
420,622	9,17
420,981	9,18
421,339	9,19
421,697	9,2
422,055	9,22
422,413	9,25
422,771	9,27
423,129	9,31
423,487	9,34
423,845	9,37
424,203	9,39
424,56	9,42
424,918	9,43
425,276	9,47
425,634	9,53
425,991	9,58
426,349	9,6
426,707	9,63
427,064	9,66
427,422	9,69
427,779	9,71
428,137	9,78
428,494	9,83
428,851	9,86
429,209	9,91
429,566	9,91
429,923	9,89
430,28	9,91
430,637	9,89
430,995	9,87
431,352	9,87
431,709	9,88
432,066	9,91
432,423	9,92
432,78	9,91
433,137	9,9
433,493	9,89
433,85	9,92
434,207	9,89
434,564	9,89
434,92	9,88
435,277	9,88
435,634	9,87
435,99	9,82
436,347	9,81
436,703	9,82
437,06	9,83
437,416	9,83
437,773	9,82
438,129	9,8
438,485	9,82
438,841	9,82
439,198	9,83
439,554	9,81
439,91	9,81
440,266	9,82
440,622	9,83
440,978	9,82
441,334	9,78
441,69	9,78
442,046	9,76
442,402	9,75
442,758	9,73
443,113	9,71
443,469	9,72
443,825	9,72
444,181	9,7
444,536	9,72
444,892	9,74
445,247	9,75
445,603	9,77
445,958	9,77
446,314	9,77
446,669	9,77
447,025	9,78
447,38	9,78
447,735	9,79
448,09	9,8
448,446	9,82
448,801	9,85
449,156	9,87
449,511	9,91
449,866	9,95
450,221	10,01
450,576	10,06
450,931	10,11
451,286	10,16
451,641	10,22
451,995	10,22
452,35	10,26
452,705	10,29
453,06	10,3
453,414	10,32
453,769	10,33
454,123	10,35
454,478	10,37
454,832	10,41
455,187	10,37
455,541	10,34
455,896	10,32
456,25	10,29
456,604	10,29
456,958	10,27
457,313	10,27
457,667	10,26
458,021	10,27
458,375	10,28
458,729	10,29
459,083	10,3
459,437	10,3
459,791	10,29
460,145	10,31
460,499	10,31
460,852	10,3
461,206	10,3
461,56	10,28
461,914	10,29
462,267	10,27
462,621	10,3
462,974	10,32
463,328	10,34
463,681	10,36
464,035	10,39
464,388	10,4
464,742	10,42
465,095	10,44
465,448	10,46
465,801	10,43
466,155	10,41
466,508	10,4
466,861	10,41
467,214	10,38
467,567	10,37
467,92	10,38
468,273	10,38
468,626	10,37
468,979	10,38
469,332	10,36
469,684	10,37
470,037	10,38
470,39	10,4
470,743	10,41
471,095	10,43
471,448	10,43
471,8	10,45
472,153	10,46
472,505	10,47
472,858	10,45
473,21	10,47
473,562	10,49
473,915	10,49
474,267	10,49
474,619	10,52
474,971	10,51
475,324	10,5
475,676	10,51
476,028	10,54
476,38	10,54
476,732	10,54
477,084	10,53
477,436	10,53
477,787	10,51
478,139	10,49
478,491	10,48
478,843	10,46
479,195	10,45
479,546	10,39
479,898	10,33
480,249	10,28
480,601	10,24
480,952	10,22
481,304	10,21
481,655	10,2
482,007	10,19
482,358	10,21
482,709	10,21
483,061	10,2
483,412	10,2
483,763	10,19
484,114	10,18
484,465	10,17
484,816	10,16
485,167	10,16
485,518	10,16
485,869	10,17
486,22	10,17
486,571	10,18
486,922	10,2
487,272	10,22
487,623	10,24
487,974	10,26
488,324	10,26
488,675	10,27
489,025	10,27
489,376	10,28
489,726	10,27
490,077	10,28
490,427	10,3
490,778	10,31
491,128	10,34
491,478	10,36
491,828	10,39
492,179	10,43
492,529	10,45
492,879	10,46
493,229	10,48
493,579	10,5
493,929	10,5
494,279	10,52
494,629	10,51
494,979	10,53
495,328	10,58
495,678	10,62
496,028	10,66
496,378	10,7
496,727	10,72
497,077	10,74
497,426	10,76
497,776	10,75
498,125	10,74
498,475	10,75
498,824	10,76
499,174	10,75
499,523	10,76
499,872	10,77
500,221	10,79
500,571	10,78
500,92	10,78
501,269	10,79
501,618	10,8
501,967	10,81
502,316	10,82
502,665	10,8
503,014	10,83
503,363	10,82
503,711	10,83
504,06	10,82
504,409	10,81
504,758	10,77
505,106	10,79
505,455	10,78
505,803	10,77
506,152	10,75
506,5	10,76
506,849	10,78
507,197	10,78
507,546	10,78
507,894	10,78
508,242	10,8
508,59	10,8
508,939	10,79
509,287	10,78
509,635	10,78
509,983	10,81
510,331	10,8
510,679	10,82
511,027	10,82
511,375	10,84
511,723	10,87
512,07	10,9
512,418	10,91
512,766	10,95
513,114	10,96
513,461	10,99
513,809	10,99
514,156	10,95
514,504	10,95
514,851	10,92
515,199	10,9
515,546	10,87
515,893	10,87
516,241	10,89
516,588	10,9
516,935	10,92
517,282	10,93
517,63	10,93
517,977	10,94
518,324	10,94
518,671	10,93
519,018	10,92
519,365	10,92
519,711	10,92
520,058	10,91
520,405	10,93
520,752	10,92
521,099	10,95
521,445	10,98
521,792	10,98
522,138	11
522,485	11,02
522,832	11,03
523,178	11,05
523,524	11,04
523,871	11,05
524,217	11,05
524,563	11,01
524,91	10,95
525,256	10,9
525,602	10,86
525,948	10,86
526,294	10,86
526,64	10,86
526,986	10,87
527,332	10,86
527,678	10,86
528,024	10,87
528,37	10,86
528,716	10,85
529,061	10,86
529,407	10,85
529,753	10,85
530,098	10,83
530,444	10,83
530,789	10,82
531,135	10,83
531,48	10,83
531,826	10,84
532,171	10,88
532,516	10,92
532,862	10,95
533,207	10,96
533,552	10,96
533,897	10,96
534,242	10,96
534,587	10,96
534,932	10,98
535,277	10,99
535,622	11
535,967	11,02
536,312	11,03
536,657	11,05
537,001	11,06
537,346	11,09
537,691	11,07
538,035	11,03
538,38	11,01
538,724	11
539,069	10,99
539,413	11
539,758	10,99
540,102	11,01
540,446	11,01
540,791	11,01
541,135	11,03
541,479	11,04
541,823	11,05
542,167	11,05
542,512	11,05
542,856	11,03
543,2	11,01
543,543	11,01
543,887	11,01
544,231	11,03
544,575	11,04
544,919	11,06
545,262	11,13
545,606	11,17
545,95	11,19
546,293	11,21
546,637	11,21
546,98	11,21
547,324	11,21
547,667	11,23
548,011	11,25
548,354	11,25
548,697	11,23
549,04	11,21
549,384	11,19
549,727	11,17
550,07	11,18
550,413	11,19
550,756	11,2
551,099	11,19
551,442	11,18
551,785	11,18
552,128	11,19
552,47	11,16
552,813	11,16
553,156	11,18
553,499	11,17
553,841	11,15
554,184	11,14
554,526	11,14
554,869	11,11
555,211	11,09
555,554	11,07
555,896	11,06
556,238	11,04
556,581	11,01
556,923	10,97
557,265	10,95
557,607	10,93
557,949	10,92
558,291	10,89
558,633	10,86
558,975	10,85
559,317	10,82
559,659	10,79
560,001	10,75
560,343	10,71
560,685	10,68
561,026	10,65
561,368	10,62
561,71	10,59
562,051	10,56
562,393	10,56
562,734	10,53
563,076	10,53
563,417	10,52
563,759	10,53
564,1	10,53
564,441	10,55
564,782	10,54
565,124	10,51
565,465	10,52
565,806	10,51
566,147	10,47
566,488	10,46
566,829	10,45
567,17	10,43
567,511	10,41
567,851	10,42
568,192	10,4
568,533	10,38
568,874	10,37
569,214	10,39
569,555	10,35
569,895	10,32
570,236	10,28
570,576	10,25
570,917	10,22
571,257	10,2
571,598	10,19
571,938	10,19
572,278	10,2
572,618	10,2
572,959	10,19
573,299	10,2
573,639	10,18
573,979	10,18
574,319	10,18
574,659	10,18
574,999	10,16
575,339	10,17
575,678	10,16
576,018	10,15
576,358	10,12
576,698	10,12
577,037	10,13
577,377	10,11
577,716	10,13
578,056	10,13
578,395	10,12
578,735	10,08
579,074	10,04
579,413	10,02
579,753	9,98
580,092	9,96
580,431	9,93
580,77	9,93
581,109	9,88
581,448	9,86
581,787	9,81
582,126	9,79
582,465	9,74
582,804	9,75
583,143	9,76
583,482	9,76
583,82	9,76
584,159	9,75
584,498	9,77
584,836	9,73
585,175	9,72
585,514	9,74
585,852	9,74
586,19	9,75
586,529	9,73
586,867	9,72
587,205	9,72
587,544	9,74
587,882	9,72
588,22	9,75
588,558	9,78
588,896	9,78
589,234	9,77
589,572	9,79
589,91	9,76
590,248	9,7
590,586	9,67
590,924	9,65
591,262	9,65
591,599	9,64
591,937	9,67
592,275	9,67
592,612	9,63
592,95	9,65
593,287	9,66
593,625	9,67
593,962	9,66
594,299	9,68
594,637	9,69
594,974	9,7
595,311	9,72
595,648	9,71
595,985	9,74
596,322	9,75
596,659	9,76
596,996	9,78
597,333	9,77
597,67	9,76
598,007	9,77
598,344	9,76
598,681	9,76
599,017	9,75
599,354	9,75
599,691	9,75
600,027	9,76
600,364	9,76
600,7	9,77
601,037	9,8
601,373	9,82
601,71	9,83
602,046	9,88
602,382	9,87
602,718	9,89
603,054	9,9
603,391	9,91
603,727	9,91
604,063	9,92
604,399	9,96
604,735	10
605,071	10,02
605,406	10,03
605,742	10,05
606,078	10,06
606,414	10,06
606,749	10,11
607,085	10,12
607,421	10,13
607,756	10,15
608,092	10,15
608,427	10,14
608,762	10,13
609,098	10,09
609,433	10,07
609,768	10,05
610,104	10,04
610,439	10
610,774	9,99
611,109	9,97
611,444	9,95
611,779	9,92
612,114	9,93
612,449	9,95
612,784	9,9
613,118	9,87
613,453	9,85
613,788	9,79
614,123	9,7
614,457	9,65
614,792	9,6
615,126	9,59
615,461	9,56
615,795	9,52
616,13	9,45
616,464	9,41
616,798	9,36
617,132	9,33
617,467	9,34
617,801	9,32
618,135	9,33
618,469	9,32
618,803	9,34
619,137	9,32
619,471	9,31
619,805	9,32
620,139	9,32
620,472	9,34
620,806	9,36
621,14	9,38
621,473	9,38
621,807	9,34
622,141	9,32
622,474	9,29
622,808	9,29
623,141	9,32
623,474	9,37
623,808	9,42
624,141	9,48
624,474	9,53
624,807	9,56
625,141	9,57
625,474	9,6
625,807	9,6
626,14	9,61
626,473	9,63
626,806	9,66
627,138	9,65
627,471	9,63
627,804	9,62
628,137	9,62
628,469	9,62
628,802	9,65
629,135	9,64
629,467	9,66
629,8	9,68
630,132	9,68
630,465	9,67
630,797	9,68
631,129	9,66
631,461	9,65
631,794	9,67
632,126	9,66
632,458	9,64
632,79	9,62
633,122	9,6
633,454	9,56
633,786	9,54
634,118	9,54
634,45	9,54
634,781	9,56
635,113	9,59
635,445	9,63
635,777	9,63
636,108	9,63
636,44	9,63
636,771	9,65
637,103	9,67
637,434	9,66
637,765	9,65
638,097	9,61
638,428	9,57
638,759	9,53
639,09	9,53
639,422	9,51
639,753	9,49
640,084	9,47
640,415	9,5
640,746	9,52
641,077	9,53
641,407	9,53
641,738	9,53
642,069	9,52
642,4	9,48
642,73	9,5
643,061	9,49
643,392	9,46
643,722	9,43
644,053	9,42
644,383	9,41
644,713	9,37
645,044	9,39
645,374	9,44
645,704	9,44
646,034	9,42
646,365	9,41
646,695	9,42
647,025	9,45
647,355	9,46
647,685	9,46
648,015	9,48
648,344	9,48
648,674	9,49
649,004	9,47
649,334	9,46
649,663	9,48
649,993	9,51
650,323	9,56
650,652	9,57
650,982	9,61
651,311	9,65
651,64	9,69
651,97	9,72
652,299	9,73
652,628	9,76
