Data from zc74010_2_Reflection_00005.txt Node
Date: Thu Mar 12 15:00:08 ART 2020
User: Ana
Spectrometer: USB2E3644
Trigger mode: 4
Integration Time (sec): 5,000000E-2
Scans to average: 10
Electric dark correction enabled: true
Nonlinearity correction enabled: false
Boxcar width: 10
XAxis mode: Wavelengths
Number of Pixels in Spectrum: 2048
>>>>>Begin Spectral Data<<<<<
178,315	80,91
178,696	90,7
179,076	96,41
179,457	80,25
179,838	82,86
180,218	91,11
180,599	-166,67
180,979	80,65
181,36	108,33
181,74	109,26
182,121	105
182,501	105,26
182,881	103,74
183,262	100
183,642	97,7
184,022	96,62
184,402	97,46
184,783	98,2
185,163	95,41
185,543	94,09
185,923	95,13
186,303	97,43
186,683	99,77
187,063	102,71
187,443	103,17
187,823	103,65
188,203	103,59
188,583	103,72
188,963	103,72
189,343	103,13
189,723	103,4
190,102	106,46
190,482	110,73
190,862	112,93
191,242	114,58
191,621	114,75
192,001	113,76
192,38	112,59
192,76	110,82
193,14	111,4
193,519	112,1
193,898	112,44
194,278	113,47
194,657	115,68
195,037	115,46
195,416	113,12
195,795	113,01
196,175	113,17
196,554	112,47
196,933	112,26
197,312	112,65
197,692	112,3
198,071	110,84
198,45	109,31
198,829	108,92
199,208	109,34
199,587	109,77
199,966	110,3
200,345	110,18
200,724	110,71
201,103	110,68
201,482	111,9
201,86	113,4
202,239	112,2
202,618	111,32
202,997	111,93
203,375	114,13
203,754	115,91
204,133	117,68
204,511	119,11
204,89	120,08
205,269	120,32
205,647	120,02
206,026	119,49
206,404	118,91
206,782	117,65
207,161	116,78
207,539	115,38
207,918	115,02
208,296	116,22
208,674	117,06
209,052	118,55
209,431	119,22
209,809	118,88
210,187	119,05
210,565	118,74
210,943	118,37
211,321	117,98
211,699	117,94
212,077	117,86
212,455	116,88
212,833	116,17
213,211	115,91
213,589	116,54
213,967	116,46
214,345	117,2
214,722	118,96
215,1	120,46
215,478	121,62
215,855	122,4
216,233	122,75
216,611	123,67
216,988	122,82
217,366	121,44
217,743	121,66
218,121	123,01
218,498	124,18
218,876	124,09
219,253	122,63
219,631	121,41
220,008	120
220,385	120,47
220,762	121,24
221,14	121,46
221,517	120,75
221,894	122,3
222,271	122,28
222,648	121,51
223,025	120,32
223,402	120
223,78	119,42
224,157	118,52
224,533	117,32
224,91	118,05
225,287	120,3
225,664	122,08
226,041	121,84
226,418	121,58
226,795	122,16
227,171	122,68
227,548	123,99
227,925	125,31
228,301	126,21
228,678	126,79
229,055	127,69
229,431	128,94
229,808	129,16
230,184	129,71
230,561	131,67
230,937	134,16
231,313	135,92
231,69	137,58
232,066	140,15
232,442	142,43
232,819	142,87
233,195	141,88
233,571	141,53
233,947	144,5
234,323	147,36
234,699	149,25
235,075	151,44
235,451	153,11
235,827	155,12
236,203	156
236,579	157,91
236,955	162,77
237,331	171,63
237,707	182,62
238,083	196,81
238,459	212,89
238,834	239,31
239,21	282,88
239,586	340,72
239,961	405,59
240,337	475,38
240,713	541,48
241,088	619,4
241,464	714,29
241,839	840
242,215	1114,91
242,59	2616,33
242,965	-1611,25
243,341	-459,72
243,716	-249,52
244,091	-179,95
244,467	-149,04
244,842	-131,04
245,217	-119,14
245,592	-113,26
245,967	-112,02
246,343	-108,55
246,718	-105,95
247,093	-107,91
247,468	-111,04
247,843	-110,76
248,218	-106,44
248,593	-98,07
248,967	-89,23
249,342	-84,82
249,717	-82,5
250,092	-80,84
250,467	-81,13
250,841	-85,61
251,216	-97,19
251,591	-117,16
251,965	-140,71
252,34	-159,35
252,714	-177,78
253,089	-190,22
253,463	-199,67
253,838	-197,69
254,212	-193,57
254,587	-184,67
254,961	-162,72
255,335	-136,62
255,71	-111,59
256,084	-85,64
256,458	-67,96
256,832	-57,56
257,206	-51,47
257,581	-48,18
257,955	-46,32
258,329	-44,44
258,703	-42,32
259,077	-40,37
259,451	-38,4
259,825	-37,25
260,199	-36,97
260,572	-36,5
260,946	-36,81
261,32	-36,51
261,694	-36,07
262,068	-35,85
262,441	-35,35
262,815	-35,34
263,189	-35,27
263,562	-35,84
263,936	-38,79
264,309	-42,91
264,683	-47,53
265,056	-49,93
265,43	-50,7
265,803	-50,75
266,176	-50,26
266,55	-49,74
266,923	-49,05
267,296	-48,26
267,67	-46,29
268,043	-44,44
268,416	-41,92
268,789	-38,99
269,162	-36,49
269,535	-34,3
269,908	-32,7
270,281	-32,03
270,654	-32,15
271,027	-32,84
271,4	-33,37
271,773	-33,09
272,146	-32,97
272,519	-32,73
272,891	-32,47
273,264	-32,55
273,637	-32,62
274,01	-32,62
274,382	-33,29
274,755	-33,56
275,127	-33,73
275,5	-34,17
275,872	-34,4
276,245	-34,93
276,617	-35,95
276,99	-36,56
277,362	-37,59
277,734	-38,28
278,107	-38,16
278,479	-37,72
278,851	-36,96
279,223	-36,29
279,596	-35,64
279,968	-35,29
280,34	-34,77
280,712	-34,29
281,084	-33,16
281,456	-31,71
281,828	-30,38
282,2	-28,44
282,572	-26,97
282,944	-25,88
283,315	-25,08
283,687	-24,41
284,059	-24
284,431	-23,57
284,802	-23,14
285,174	-22,61
285,546	-22,05
285,917	-21,32
286,289	-20,51
286,66	-20,08
287,032	-19,63
287,403	-19,51
287,775	-19,44
288,146	-19,53
288,518	-19,69
288,889	-19,69
289,26	-19,73
289,632	-20,13
290,003	-20,77
290,374	-21,22
290,745	-21,41
291,116	-21,36
291,487	-21,27
291,858	-21,09
292,229	-20,76
292,6	-20,23
292,971	-19,38
293,342	-18,51
293,713	-17,82
294,084	-17,35
294,455	-16,71
294,826	-16,41
295,196	-16,35
295,567	-16,5
295,938	-16,27
296,308	-16,06
296,679	-15,87
297,05	-15,69
297,42	-15,28
297,791	-14,79
298,161	-14,57
298,532	-14,28
298,902	-14,05
299,272	-13,87
299,643	-13,81
300,013	-13,57
300,383	-13,48
300,754	-13,69
301,124	-14,17
301,494	-14,67
301,864	-15,1
302,234	-15,61
302,604	-15,72
302,974	-15,58
303,344	-15,22
303,714	-14,94
304,084	-14,55
304,454	-14,31
304,824	-14,09
305,194	-14,02
305,563	-13,9
305,933	-13,62
306,303	-13,38
306,673	-13,02
307,042	-12,52
307,412	-11,75
307,781	-11,1
308,151	-10,75
308,521	-10,47
308,89	-10,04
309,259	-9,87
309,629	-9,84
309,998	-9,77
310,368	-9,77
310,737	-9,71
311,106	-9,57
311,475	-9,39
311,845	-9,35
312,214	-9,24
312,583	-9,17
312,952	-9,19
313,321	-9,18
313,69	-8,87
314,059	-8,7
314,428	-8,75
314,797	-8,87
315,166	-9,26
315,535	-9,86
315,904	-10,28
316,272	-10,52
316,641	-10,8
317,01	-10,77
317,379	-10,57
317,747	-10,13
318,116	-9,7
318,484	-9,5
318,853	-9,31
319,221	-9,24
319,59	-9,23
319,958	-9,1
320,327	-8,9
320,695	-8,69
321,063	-8,47
321,432	-8,42
321,8	-8,22
322,168	-8,1
322,536	-8,1
322,905	-7,7
323,273	-7,19
323,641	-6,85
324,009	-6,58
324,377	-6,31
324,745	-6,04
325,113	-5,74
325,481	-5,54
325,849	-5,43
326,216	-5,22
326,584	-5,04
326,952	-4,94
327,32	-4,75
327,687	-4,62
328,055	-4,46
328,423	-4,33
328,79	-4,34
329,158	-4,4
329,525	-4,5
329,893	-4,42
330,26	-4,28
330,628	-4,35
330,995	-4,4
331,362	-4,39
331,73	-4,34
332,097	-4,22
332,464	-4,12
332,831	-4,01
333,199	-3,94
333,566	-3,87
333,933	-3,71
334,3	-3,53
334,667	-3,35
335,034	-3,19
335,401	-3,13
335,768	-3,12
336,135	-3,02
336,502	-2,83
336,868	-2,67
337,235	-2,54
337,602	-2,42
337,969	-2,23
338,335	-2,03
338,702	-1,81
339,069	-1,65
339,435	-1,61
339,802	-1,52
340,168	-1,46
340,535	-1,36
340,901	-1,38
341,267	-1,35
341,634	-1,33
342	-1,32
342,366	-1,22
342,733	-1,2
343,099	-1,11
343,465	-1,05
343,831	-1,02
344,197	-1
344,563	-1,01
344,929	-0,93
345,295	-0,78
345,661	-0,69
346,027	-0,66
346,393	-0,68
346,759	-0,62
347,125	-0,54
347,491	-0,53
347,856	-0,53
348,222	-0,59
348,588	-0,47
348,953	-0,34
349,319	-0,33
349,684	-0,3
350,05	-0,31
350,415	-0,2
350,781	-0,1
351,146	0,05
351,512	0,21
351,877	0,32
352,242	0,44
352,608	0,5
352,973	0,52
353,338	0,55
353,703	0,65
354,068	0,69
354,433	0,75
354,798	0,84
355,164	0,89
355,528	0,95
355,893	1,01
356,258	1,02
356,623	1,1
356,988	1,27
357,353	1,36
357,718	1,44
358,082	1,47
358,447	1,52
358,812	1,58
359,176	1,61
359,541	1,7
359,905	1,77
360,27	1,82
360,634	1,83
360,999	1,89
361,363	1,92
361,728	2,01
362,092	2,08
362,456	2,12
362,821	2,22
363,185	2,3
363,549	2,38
363,913	2,44
364,277	2,47
364,641	2,43
365,005	2,49
365,369	2,5
365,733	2,54
366,097	2,59
366,461	2,63
366,825	2,71
367,189	2,73
367,553	2,78
367,916	2,89
368,28	3,03
368,644	3,09
369,007	3,16
369,371	3,22
369,734	3,27
370,098	3,34
370,461	3,41
370,825	3,49
371,188	3,56
371,552	3,61
371,915	3,67
372,278	3,81
372,642	3,92
373,005	4,08
373,368	4,24
373,731	4,35
374,094	4,46
374,457	4,53
374,82	4,62
375,183	4,7
375,546	4,77
375,909	4,82
376,272	4,93
376,635	5,04
376,998	5,14
377,361	5,2
377,723	5,29
378,086	5,36
378,449	5,41
378,811	5,47
379,174	5,56
379,537	5,63
379,899	5,65
380,262	5,65
380,624	5,66
380,987	5,68
381,349	5,72
381,711	5,75
382,074	5,81
382,436	5,89
382,798	5,97
383,16	6,01
383,522	6,08
383,884	6,13
384,247	6,19
384,609	6,25
384,971	6,29
385,333	6,31
385,695	6,32
386,056	6,38
386,418	6,39
386,78	6,39
387,142	6,41
387,504	6,45
387,865	6,52
388,227	6,55
388,589	6,59
388,95	6,62
389,312	6,65
389,673	6,67
390,035	6,67
390,396	6,67
390,758	6,71
391,119	6,7
391,48	6,69
391,842	6,7
392,203	6,69
392,564	6,69
392,925	6,71
393,286	6,73
393,648	6,73
394,009	6,77
394,37	6,8
394,731	6,84
395,092	6,85
395,452	6,84
395,813	6,85
396,174	6,84
396,535	6,86
396,896	6,87
397,257	6,9
397,617	6,95
397,978	6,98
398,338	6,98
398,699	7,04
399,06	7,09
399,42	7,09
399,781	7,12
400,141	7,15
400,501	7,15
400,862	7,16
401,222	7,17
401,582	7,18
401,943	7,19
402,303	7,2
402,663	7,23
403,023	7,25
403,383	7,29
403,743	7,3
404,103	7,3
404,463	7,33
404,823	7,36
405,183	7,36
405,543	7,37
405,903	7,38
406,262	7,37
406,622	7,35
406,982	7,38
407,342	7,4
407,701	7,42
408,061	7,47
408,42	7,51
408,78	7,54
409,139	7,56
409,499	7,58
409,858	7,58
410,217	7,6
410,577	7,59
410,936	7,57
411,295	7,58
411,655	7,54
412,014	7,5
412,373	7,45
412,732	7,41
413,091	7,39
413,45	7,34
413,809	7,33
414,168	7,28
414,527	7,22
414,886	7,15
415,245	7,1
415,603	7,06
415,962	7,02
416,321	6,99
416,679	6,96
417,038	6,91
417,397	6,88
417,755	6,81
418,114	6,8
418,472	6,78
418,831	6,78
419,189	6,78
419,547	6,77
419,906	6,76
420,264	6,73
420,622	6,7
420,981	6,69
421,339	6,68
421,697	6,69
422,055	6,71
422,413	6,73
422,771	6,75
423,129	6,77
423,487	6,79
423,845	6,82
424,203	6,83
424,56	6,88
424,918	6,92
425,276	6,97
425,634	7,01
425,991	7,04
426,349	7,07
426,707	7,11
427,064	7,15
427,422	7,18
427,779	7,25
428,137	7,32
428,494	7,39
428,851	7,4
429,209	7,41
429,566	7,39
429,923	7,4
430,28	7,37
430,637	7,36
430,995	7,34
431,352	7,3
431,709	7,29
432,066	7,3
432,423	7,29
432,78	7,27
433,137	7,27
433,493	7,25
433,85	7,26
434,207	7,21
434,564	7,19
434,92	7,19
435,277	7,17
435,634	7,16
435,99	7,14
436,347	7,14
436,703	7,15
437,06	7,14
437,416	7,13
437,773	7,12
438,129	7,12
438,485	7,14
438,841	7,14
439,198	7,13
439,554	7,12
439,91	7,13
440,266	7,14
440,622	7,13
440,978	7,11
441,334	7,06
441,69	7,06
442,046	7,05
442,402	7,03
442,758	7,02
443,113	7,01
443,469	7,01
443,825	7,01
444,181	7
444,536	7,02
444,892	7,03
445,247	7,06
445,603	7,06
445,958	7,06
446,314	7,07
446,669	7,08
447,025	7,08
447,38	7,08
447,735	7,09
448,09	7,1
448,446	7,12
448,801	7,14
449,156	7,16
449,511	7,19
449,866	7,23
450,221	7,28
450,576	7,31
450,931	7,35
451,286	7,4
451,641	7,43
451,995	7,45
452,35	7,47
452,705	7,48
453,06	7,49
453,414	7,5
453,769	7,5
454,123	7,51
454,478	7,51
454,832	7,5
455,187	7,46
455,541	7,44
455,896	7,42
456,25	7,39
456,604	7,38
456,958	7,36
457,313	7,34
457,667	7,32
458,021	7,31
458,375	7,31
458,729	7,33
459,083	7,33
459,437	7,34
459,791	7,33
460,145	7,34
460,499	7,33
460,852	7,32
461,206	7,33
461,56	7,33
461,914	7,35
462,267	7,36
462,621	7,38
462,974	7,4
463,328	7,42
463,681	7,44
464,035	7,46
464,388	7,47
464,742	7,49
465,095	7,51
465,448	7,51
465,801	7,5
466,155	7,48
466,508	7,45
466,861	7,44
467,214	7,44
467,567	7,42
467,92	7,43
468,273	7,42
468,626	7,41
468,979	7,39
469,332	7,37
469,684	7,36
470,037	7,35
470,39	7,36
470,743	7,38
471,095	7,39
471,448	7,4
471,8	7,4
472,153	7,41
472,505	7,42
472,858	7,41
473,21	7,43
473,562	7,43
473,915	7,46
474,267	7,46
474,619	7,45
474,971	7,45
475,324	7,43
475,676	7,44
476,028	7,46
476,38	7,48
476,732	7,49
477,084	7,49
477,436	7,49
477,787	7,45
478,139	7,44
478,491	7,45
478,843	7,43
479,195	7,41
479,546	7,35
479,898	7,28
480,249	7,2
480,601	7,13
480,952	7,1
481,304	7,11
481,655	7,12
482,007	7,13
482,358	7,14
482,709	7,14
483,061	7,13
483,412	7,12
483,763	7,1
484,114	7,09
484,465	7,09
484,816	7,09
485,167	7,09
485,518	7,09
485,869	7,09
486,22	7,11
486,571	7,12
486,922	7,13
487,272	7,16
487,623	7,19
487,974	7,22
488,324	7,23
488,675	7,21
489,025	7,2
489,376	7,19
489,726	7,2
490,077	7,2
490,427	7,23
490,778	7,24
491,128	7,27
491,478	7,29
491,828	7,32
492,179	7,34
492,529	7,37
492,879	7,37
493,229	7,36
493,579	7,36
493,929	7,35
494,279	7,37
494,629	7,38
494,979	7,43
495,328	7,48
495,678	7,52
496,028	7,56
496,378	7,6
496,727	7,61
497,077	7,63
497,426	7,65
497,776	7,62
498,125	7,61
498,475	7,6
498,824	7,6
499,174	7,6
499,523	7,6
499,872	7,61
500,221	7,63
500,571	7,65
500,92	7,64
501,269	7,65
501,618	7,67
501,967	7,67
502,316	7,66
502,665	7,65
503,014	7,65
503,363	7,63
503,711	7,62
504,06	7,62
504,409	7,59
504,758	7,58
505,106	7,59
505,455	7,6
505,803	7,61
506,152	7,59
506,5	7,6
506,849	7,6
507,197	7,59
507,546	7,6
507,894	7,62
508,242	7,61
508,59	7,61
508,939	7,58
509,287	7,57
509,635	7,57
509,983	7,58
510,331	7,59
510,679	7,61
511,027	7,62
511,375	7,62
511,723	7,65
512,07	7,67
512,418	7,69
512,766	7,7
513,114	7,71
513,461	7,74
513,809	7,72
514,156	7,7
514,504	7,69
514,851	7,67
515,199	7,64
515,546	7,63
515,893	7,62
516,241	7,64
516,588	7,65
516,935	7,66
517,282	7,65
517,63	7,64
517,977	7,65
518,324	7,66
518,671	7,68
519,018	7,67
519,365	7,65
519,711	7,64
520,058	7,64
520,405	7,64
520,752	7,64
521,099	7,64
521,445	7,65
521,792	7,65
522,138	7,66
522,485	7,68
522,832	7,68
523,178	7,71
523,524	7,7
523,871	7,7
524,217	7,69
524,563	7,67
524,91	7,62
525,256	7,57
525,602	7,54
525,948	7,54
526,294	7,52
526,64	7,53
526,986	7,54
527,332	7,54
527,678	7,54
528,024	7,55
528,37	7,57
528,716	7,58
529,061	7,58
529,407	7,58
529,753	7,57
530,098	7,57
530,444	7,56
530,789	7,56
531,135	7,56
531,48	7,57
531,826	7,59
532,171	7,62
532,516	7,66
532,862	7,67
533,207	7,66
533,552	7,68
533,897	7,69
534,242	7,68
534,587	7,69
534,932	7,71
535,277	7,7
535,622	7,69
535,967	7,71
536,312	7,72
536,657	7,73
537,001	7,74
537,346	7,73
537,691	7,74
538,035	7,7
538,38	7,68
538,724	7,68
539,069	7,68
539,413	7,69
539,758	7,69
540,102	7,73
540,446	7,74
540,791	7,75
541,135	7,76
541,479	7,77
541,823	7,76
542,167	7,74
542,512	7,75
542,856	7,74
543,2	7,73
543,543	7,72
543,887	7,73
544,231	7,74
544,575	7,77
544,919	7,79
545,262	7,84
545,606	7,89
545,95	7,89
546,293	7,9
546,637	7,88
546,98	7,88
547,324	7,87
547,667	7,9
548,011	7,88
548,354	7,87
548,697	7,84
549,04	7,84
549,384	7,82
549,727	7,81
550,07	7,82
550,413	7,81
550,756	7,82
551,099	7,8
551,442	7,79
551,785	7,81
552,128	7,8
552,47	7,78
552,813	7,76
553,156	7,76
553,499	7,74
553,841	7,74
554,184	7,73
554,526	7,7
554,869	7,67
555,211	7,68
555,554	7,67
555,896	7,68
556,238	7,65
556,581	7,62
556,923	7,58
557,265	7,57
557,607	7,55
557,949	7,52
558,291	7,49
558,633	7,48
558,975	7,45
559,317	7,42
559,659	7,4
560,001	7,39
560,343	7,34
560,685	7,34
561,026	7,32
561,368	7,3
561,71	7,28
562,051	7,24
562,393	7,22
562,734	7,19
563,076	7,16
563,417	7,18
563,759	7,19
564,1	7,21
564,441	7,2
564,782	7,18
565,124	7,17
565,465	7,18
565,806	7,15
566,147	7,12
566,488	7,09
566,829	7,08
567,17	7,06
567,511	7,05
567,851	7,01
568,192	6,98
568,533	6,97
568,874	6,98
569,214	7
569,555	6,97
569,895	6,97
570,236	6,94
570,576	6,91
570,917	6,89
571,257	6,87
571,598	6,85
571,938	6,85
572,278	6,84
572,618	6,83
572,959	6,84
573,299	6,86
573,639	6,85
573,979	6,85
574,319	6,84
574,659	6,82
574,999	6,81
575,339	6,82
575,678	6,82
576,018	6,79
576,358	6,75
576,698	6,73
577,037	6,72
577,377	6,73
577,716	6,71
578,056	6,67
578,395	6,64
578,735	6,62
579,074	6,58
579,413	6,55
579,753	6,51
580,092	6,43
580,431	6,37
580,77	6,35
581,109	6,31
581,448	6,29
581,787	6,27
582,126	6,27
582,465	6,23
582,804	6,2
583,143	6,19
583,482	6,18
583,82	6,19
584,159	6,18
584,498	6,17
584,836	6,17
585,175	6,15
585,514	6,15
585,852	6,15
586,19	6,16
586,529	6,14
586,867	6,14
587,205	6,15
587,544	6,16
587,882	6,14
588,22	6,15
588,558	6,16
588,896	6,18
589,234	6,16
589,572	6,17
589,91	6,16
590,248	6,13
590,586	6,09
590,924	6,08
591,262	6,07
591,599	6,05
591,937	6,06
592,275	6,07
592,612	6,08
592,95	6,08
593,287	6,07
593,625	6,1
593,962	6,11
594,299	6,15
594,637	6,2
594,974	6,24
595,311	6,26
595,648	6,26
595,985	6,27
596,322	6,28
596,659	6,3
596,996	6,32
597,333	6,32
597,67	6,33
598,007	6,34
598,344	6,33
598,681	6,34
599,017	6,34
599,354	6,33
599,691	6,3
600,027	6,31
600,364	6,33
600,7	6,34
601,037	6,36
601,373	6,37
601,71	6,37
602,046	6,37
602,382	6,37
602,718	6,4
603,054	6,41
603,391	6,43
603,727	6,43
604,063	6,43
604,399	6,45
604,735	6,47
605,071	6,48
605,406	6,48
605,742	6,47
606,078	6,48
606,414	6,5
606,749	6,54
607,085	6,56
607,421	6,55
607,756	6,56
608,092	6,55
608,427	6,53
608,762	6,51
609,098	6,48
609,433	6,45
609,768	6,42
610,104	6,38
610,439	6,32
610,774	6,29
611,109	6,28
611,444	6,25
611,779	6,21
612,114	6,21
612,449	6,22
612,784	6,21
613,118	6,19
613,453	6,14
613,788	6,09
614,123	6,02
614,457	5,96
614,792	5,89
615,126	5,83
615,461	5,77
615,795	5,73
616,13	5,7
616,464	5,67
616,798	5,63
617,132	5,61
617,467	5,63
617,801	5,64
618,135	5,64
618,469	5,63
618,803	5,65
619,137	5,65
619,471	5,65
619,805	5,64
620,139	5,65
620,472	5,68
620,806	5,7
621,14	5,73
621,473	5,75
621,807	5,74
622,141	5,75
622,474	5,75
622,808	5,75
623,141	5,74
623,474	5,77
623,808	5,81
624,141	5,85
624,474	5,87
624,807	5,88
625,141	5,92
625,474	5,98
625,807	6
626,14	6,01
626,473	6,02
626,806	6,04
627,138	6,05
627,471	6,04
627,804	6,04
628,137	6,04
628,469	6,04
628,802	6,06
629,135	6,05
629,467	6,06
629,8	6,08
630,132	6,06
630,465	6,03
630,797	6,01
631,129	5,98
631,461	5,96
631,794	5,96
632,126	5,93
632,458	5,9
632,79	5,9
633,122	5,91
633,454	5,9
633,786	5,89
634,118	5,86
634,45	5,88
634,781	5,88
635,113	5,9
635,445	5,94
635,777	5,97
636,108	5,98
636,44	5,98
636,771	5,99
637,103	6,02
637,434	6,04
637,765	6,03
638,097	6
638,428	5,96
638,759	5,92
639,09	5,89
639,422	5,86
639,753	5,84
640,084	5,78
640,415	5,74
640,746	5,7
641,077	5,71
641,407	5,69
641,738	5,65
642,069	5,59
642,4	5,56
642,73	5,52
643,061	5,5
643,392	5,46
643,722	5,44
644,053	5,42
644,383	5,4
644,713	5,41
645,044	5,44
645,374	5,49
645,704	5,51
646,034	5,52
646,365	5,49
646,695	5,49
647,025	5,53
647,355	5,56
647,685	5,59
648,015	5,57
648,344	5,55
648,674	5,56
649,004	5,58
649,334	5,58
649,663	5,62
649,993	5,65
650,323	5,69
650,652	5,68
650,982	5,68
651,311	5,67
651,64	5,64
651,97	5,65
652,299	5,65
652,628	5,69
652,958	5,71
653,287	5,76
653,616	5,77
653,945	5,75
654,274	5,75
654,603	5,75
654,932	5,78
655,261	5,81
655,589	5,86
655,918	5,89
656,247	5,91
656,576	5,92
656,904	5,97
657,233	6,01
657,561	6,08
657,89	6,15
658,218	6,21
658,547	6,25
658,875	6,28
659,203	6,3
659,532	6,27
659,86	6,25
660,188	6,23
660,516	6,23
660,844	6,23
661,172	6,24
661,5	6,26
661,828	6,28
662,156	6,29
662,484	6,29
662,811	6,25
663,139	6,25
663,467	6,22
