Data from zc74042_1_Reflection_00004.txt Node
Date: Thu Mar 12 14:48:42 ART 2020
User: Ana
Spectrometer: USB2E3644
Trigger mode: 4
Integration Time (sec): 5,000000E-2
Scans to average: 10
Electric dark correction enabled: true
Nonlinearity correction enabled: false
Boxcar width: 10
XAxis mode: Wavelengths
Number of Pixels in Spectrum: 2048
>>>>>Begin Spectral Data<<<<<
178,315	126,68
178,696	123,29
179,076	120,52
179,457	111,02
179,838	71,21
180,218	46,15
180,599	-11,54
180,979	117,86
181,36	3,49
181,74	36,14
182,121	53,12
182,501	80,26
182,881	76,95
183,262	77,93
183,642	85,35
184,022	93,93
184,402	98,19
184,783	99,81
185,163	101,19
185,543	99,53
185,923	102,18
186,303	105,4
186,683	104,87
187,063	102,42
187,443	98,9
187,823	91,65
188,203	90,59
188,583	93,22
188,963	97,93
189,343	103,51
189,723	105,19
190,102	106,49
190,482	109,36
190,862	110,97
191,242	113,31
191,621	114,38
192,001	115,24
192,38	114,7
192,76	113,03
193,14	111,65
193,519	111,95
193,898	111,78
194,278	110,28
194,657	109,53
195,037	111,07
195,416	114,28
195,795	117,06
196,175	117,74
196,554	116,62
196,933	113,91
197,312	113,11
197,692	112,97
198,071	113,61
198,45	113,22
198,829	114,11
199,208	114,26
199,587	114,52
199,966	113,31
200,345	112,89
200,724	113,39
201,103	113,66
201,482	113,7
201,86	114,43
202,239	116,1
202,618	117,58
202,997	117,32
203,375	115,31
203,754	114,79
204,133	114,69
204,511	114,23
204,89	114,1
205,269	113,9
205,647	115,14
206,026	115,12
206,404	114,85
206,782	114,17
207,161	114,52
207,539	114,65
207,918	115,62
208,296	115,87
208,674	116,26
209,052	116,19
209,431	116,33
209,809	115,59
210,187	114,07
210,565	113,02
210,943	113,9
211,321	116,29
211,699	117,85
212,077	118,95
212,455	122
212,833	124,38
213,211	124,57
213,589	123,25
213,967	122,96
214,345	122,78
214,722	122,02
215,1	121,45
215,478	120,34
215,855	119,94
216,233	121,7
216,611	124,31
216,988	126,49
217,366	126,53
217,743	125,88
218,121	126,57
218,498	126,98
218,876	126,65
219,253	124,73
219,631	124,52
220,008	125,14
220,385	123,95
220,762	122,17
221,14	123,76
221,517	124,78
221,894	124,23
222,271	126,34
222,648	130,23
223,025	133,41
223,402	136,77
223,78	139,49
224,157	139,64
224,533	137,75
224,91	137,56
225,287	139,7
225,664	145,48
226,041	151,74
226,418	157,81
226,795	159,98
227,171	163
227,548	164,75
227,925	165,86
228,301	168,33
228,678	171
229,055	169,59
229,431	171,95
229,808	177,31
230,184	179,21
230,561	179,98
230,937	181,38
231,313	182,07
231,69	182,51
232,066	180,54
232,442	179,69
232,819	181,89
233,195	180,53
233,571	179,26
233,947	176,41
234,323	172,9
234,699	173,83
235,075	176,14
235,451	179,13
235,827	181,88
236,203	184,83
236,579	192,05
236,955	204,79
237,331	216,63
237,707	229,91
238,083	255,13
238,459	303,56
238,834	386,08
239,21	546,65
239,586	864,73
239,961	1766,36
240,337	5463,89
240,713	-11038,89
241,088	-3129,69
241,464	-2292,05
241,839	-1736,44
242,215	-1052,02
242,59	-618,42
242,965	-341,13
243,341	-201,82
243,716	-136,54
244,091	-107,64
244,467	-92,32
244,842	-82,84
245,217	-76,04
245,592	-72,5
245,967	-73,16
246,343	-73,02
246,718	-73,18
247,093	-76,24
247,468	-78,19
247,843	-77,46
248,218	-74,28
248,593	-68,52
248,967	-63,05
249,342	-60,55
249,717	-59,06
250,092	-58,44
250,467	-59,6
250,841	-64,16
251,216	-73,3
251,591	-87,48
251,965	-100,44
252,34	-109,64
252,714	-119,99
253,089	-127,69
253,463	-134,39
253,838	-132,46
254,212	-127,06
254,587	-118,62
254,961	-103,37
255,335	-88,85
255,71	-74,56
256,084	-59
256,458	-48,13
256,832	-40,99
257,206	-36,77
257,581	-34,6
257,955	-32,98
258,329	-31,41
258,703	-29,42
259,077	-28,25
259,451	-27,04
259,825	-26,45
260,199	-26,51
260,572	-26,31
260,946	-26,27
261,32	-25,85
261,694	-25,19
262,068	-24,86
262,441	-24,75
262,815	-25,1
263,189	-25,24
263,562	-25,9
263,936	-28,22
264,309	-31,76
264,683	-35,24
265,056	-37,01
265,43	-37,57
265,803	-37,75
266,176	-37,67
266,55	-37,84
266,923	-37,23
267,296	-36,4
267,67	-35
268,043	-33,68
268,416	-31,63
268,789	-29,41
269,162	-27,24
269,535	-25,65
269,908	-24,6
270,281	-23,66
270,654	-22,96
271,027	-22,99
271,4	-22,9
271,773	-22,46
272,146	-22,08
272,519	-22,04
272,891	-22,01
273,264	-22,55
273,637	-22,8
274,01	-22,63
274,382	-23,08
274,755	-23,34
275,127	-23,61
275,5	-23,81
275,872	-23,84
276,245	-24,12
276,617	-24,87
276,99	-25,79
277,362	-26,5
277,734	-26,36
278,107	-26,28
278,479	-26,08
278,851	-25,81
279,223	-25,51
279,596	-25,13
279,968	-24,86
280,34	-24,29
280,712	-23,61
281,084	-22,33
281,456	-21,22
281,828	-20,23
282,2	-18,77
282,572	-17,51
282,944	-16,56
283,315	-15,93
283,687	-15,36
284,059	-15,13
284,431	-14,85
284,802	-14,51
285,174	-14,24
285,546	-14,15
285,917	-13,73
286,289	-13,38
286,66	-13,05
287,032	-12,66
287,403	-12,44
287,775	-12,21
288,146	-12,35
288,518	-12,62
288,889	-12,58
289,26	-12,56
289,632	-12,77
290,003	-13,26
290,374	-13,7
290,745	-14,12
291,116	-14,64
291,487	-15,05
291,858	-14,91
292,229	-14,77
292,6	-14,44
292,971	-13,94
293,342	-13,27
293,713	-12,73
294,084	-12,15
294,455	-11,44
294,826	-11,16
295,196	-11,27
295,567	-11,65
295,938	-11,53
296,308	-11,24
296,679	-11,07
297,05	-10,84
297,42	-10,58
297,791	-10,13
298,161	-10
298,532	-9,62
298,902	-9,21
299,272	-8,91
299,643	-8,77
300,013	-8,38
300,383	-8,1
300,754	-8,1
301,124	-8,31
301,494	-8,55
301,864	-9
302,234	-9,5
302,604	-9,58
302,974	-9,42
303,344	-9,01
303,714	-8,56
304,084	-8,09
304,454	-7,88
304,824	-7,81
305,194	-7,9
305,563	-8,1
305,933	-7,87
306,303	-7,64
306,673	-7,29
307,042	-6,74
307,412	-6,26
307,781	-6,04
308,151	-5,92
308,521	-5,76
308,89	-5,43
309,259	-5,27
309,629	-4,96
309,998	-4,65
310,368	-4,5
310,737	-4,47
311,106	-4,41
311,475	-4,44
311,845	-4,57
312,214	-4,54
312,583	-4,45
312,952	-4,26
313,321	-4,02
313,69	-3,85
314,059	-3,81
314,428	-3,88
314,797	-4
315,166	-4,16
315,535	-4,33
315,904	-4,55
316,272	-4,73
316,641	-4,94
317,01	-5,02
317,379	-5,11
317,747	-5,11
318,116	-5,01
318,484	-4,82
318,853	-4,76
319,221	-4,8
319,59	-4,83
319,958	-4,73
320,327	-4,57
320,695	-4,38
321,063	-4,17
321,432	-4,02
321,8	-3,86
322,168	-3,63
322,536	-3,65
322,905	-3,46
323,273	-3,15
323,641	-2,85
324,009	-2,63
324,377	-2,49
324,745	-2,37
325,113	-2,17
325,481	-1,96
325,849	-1,82
326,216	-1,66
326,584	-1,4
326,952	-1,22
327,32	-0,92
327,687	-0,78
328,055	-0,67
328,423	-0,61
328,79	-0,69
329,158	-0,73
329,525	-0,69
329,893	-0,64
330,26	-0,46
330,628	-0,38
330,995	-0,35
331,362	-0,39
331,73	-0,37
332,097	-0,31
332,464	-0,13
332,831	0,03
333,199	0,1
333,566	0,22
333,933	0,39
334,3	0,52
334,667	0,62
335,034	0,65
335,401	0,65
335,768	0,61
336,135	0,63
336,502	0,69
336,868	0,77
337,235	0,77
337,602	0,78
337,969	0,83
338,335	0,93
338,702	1,02
339,069	1,12
339,435	1,19
339,802	1,3
340,168	1,32
340,535	1,4
340,901	1,39
341,267	1,37
341,634	1,45
342	1,52
342,366	1,67
342,733	1,71
343,099	1,9
343,465	2,05
343,831	2,13
344,197	2,26
344,563	2,33
344,929	2,38
345,295	2,49
345,661	2,57
346,027	2,63
346,393	2,65
346,759	2,78
347,125	2,93
347,491	3,07
347,856	3,13
348,222	3,1
348,588	3,25
348,953	3,41
349,319	3,34
349,684	3,31
350,05	3,27
350,415	3,36
350,781	3,38
351,146	3,43
351,512	3,55
351,877	3,58
352,242	3,63
352,608	3,73
352,973	3,83
353,338	3,91
353,703	3,99
354,068	4,04
354,433	4,1
354,798	4,12
355,164	4,13
355,528	4,23
355,893	4,32
356,258	4,32
356,623	4,33
356,988	4,45
357,353	4,55
357,718	4,64
358,082	4,71
358,447	4,79
358,812	4,91
359,176	4,98
359,541	5,09
359,905	5,14
360,27	5,15
360,634	5,16
360,999	5,19
361,363	5,27
361,728	5,39
362,092	5,43
362,456	5,47
362,821	5,51
363,185	5,55
363,549	5,6
363,913	5,63
364,277	5,65
364,641	5,63
365,005	5,67
365,369	5,68
365,733	5,71
366,097	5,74
366,461	5,72
366,825	5,76
367,189	5,78
367,553	5,86
367,916	6,02
368,28	6,14
368,644	6,23
369,007	6,29
369,371	6,38
369,734	6,49
370,098	6,61
370,461	6,73
370,825	6,81
371,188	6,85
371,552	6,91
371,915	6,99
372,278	7,14
372,642	7,27
373,005	7,41
373,368	7,56
373,731	7,64
374,094	7,78
374,457	7,87
374,82	7,98
375,183	8,05
375,546	8,09
375,909	8,13
376,272	8,22
376,635	8,33
376,998	8,4
377,361	8,43
377,723	8,5
378,086	8,56
378,449	8,62
378,811	8,73
379,174	8,85
379,537	8,95
379,899	8,99
380,262	9
380,624	9,01
380,987	9,04
381,349	9,11
381,711	9,15
382,074	9,2
382,436	9,25
382,798	9,35
383,16	9,37
383,522	9,44
383,884	9,45
384,247	9,43
384,609	9,47
384,971	9,5
385,333	9,51
385,695	9,49
386,056	9,51
386,418	9,51
386,78	9,5
387,142	9,47
387,504	9,5
387,865	9,53
388,227	9,53
388,589	9,52
388,95	9,55
389,312	9,53
389,673	9,5
390,035	9,51
390,396	9,51
390,758	9,55
391,119	9,57
391,48	9,61
391,842	9,65
392,203	9,65
392,564	9,65
392,925	9,67
393,286	9,68
393,648	9,71
394,009	9,75
394,37	9,76
394,731	9,8
395,092	9,83
395,452	9,86
395,813	9,91
396,174	9,93
396,535	9,94
396,896	9,98
397,257	10,02
397,617	10,06
397,978	10,08
398,338	10,09
398,699	10,11
399,06	10,17
399,42	10,16
399,781	10,18
400,141	10,22
400,501	10,24
400,862	10,28
401,222	10,29
401,582	10,28
401,943	10,3
402,303	10,3
402,663	10,29
403,023	10,31
403,383	10,32
403,743	10,33
404,103	10,33
404,463	10,34
404,823	10,4
405,183	10,36
405,543	10,37
405,903	10,36
406,262	10,36
406,622	10,33
406,982	10,36
407,342	10,36
407,701	10,38
408,061	10,39
408,42	10,39
408,78	10,39
409,139	10,4
409,499	10,42
409,858	10,44
410,217	10,5
410,577	10,5
410,936	10,52
411,295	10,5
411,655	10,49
412,014	10,48
412,373	10,43
412,732	10,44
413,091	10,41
413,45	10,38
413,809	10,31
414,168	10,27
414,527	10,21
414,886	10,17
415,245	10,13
415,603	10,09
415,962	10,05
416,321	10,02
416,679	9,97
417,038	9,93
417,397	9,89
417,755	9,84
418,114	9,79
418,472	9,77
418,831	9,75
419,189	9,74
419,547	9,72
419,906	9,7
420,264	9,67
420,622	9,66
420,981	9,67
421,339	9,68
421,697	9,67
422,055	9,69
422,413	9,7
422,771	9,71
423,129	9,73
423,487	9,76
423,845	9,76
424,203	9,79
424,56	9,82
424,918	9,86
425,276	9,88
425,634	9,92
425,991	9,95
426,349	10
426,707	10,03
427,064	10,08
427,422	10,12
427,779	10,19
428,137	10,26
428,494	10,31
428,851	10,35
429,209	10,41
429,566	10,42
429,923	10,44
430,28	10,44
430,637	10,45
430,995	10,42
431,352	10,42
431,709	10,41
432,066	10,41
432,423	10,4
432,78	10,4
433,137	10,4
433,493	10,39
433,85	10,39
434,207	10,37
434,564	10,36
434,92	10,36
435,277	10,36
435,634	10,35
435,99	10,33
436,347	10,31
436,703	10,31
437,06	10,29
437,416	10,29
437,773	10,25
438,129	10,22
438,485	10,25
438,841	10,24
439,198	10,25
439,554	10,25
439,91	10,26
440,266	10,27
440,622	10,27
440,978	10,28
441,334	10,25
441,69	10,24
442,046	10,24
442,402	10,22
442,758	10,21
443,113	10,2
443,469	10,18
443,825	10,19
444,181	10,18
444,536	10,2
444,892	10,18
445,247	10,21
445,603	10,24
445,958	10,24
446,314	10,27
446,669	10,27
447,025	10,28
447,38	10,27
447,735	10,28
448,09	10,3
448,446	10,32
448,801	10,33
449,156	10,35
449,511	10,37
449,866	10,39
450,221	10,44
450,576	10,47
450,931	10,53
451,286	10,58
451,641	10,61
451,995	10,65
452,35	10,71
452,705	10,74
453,06	10,76
453,414	10,76
453,769	10,78
454,123	10,79
454,478	10,79
454,832	10,83
455,187	10,81
455,541	10,77
455,896	10,74
456,25	10,73
456,604	10,73
456,958	10,7
457,313	10,67
457,667	10,64
458,021	10,64
458,375	10,63
458,729	10,64
459,083	10,64
459,437	10,64
459,791	10,63
460,145	10,63
460,499	10,62
460,852	10,62
461,206	10,61
461,56	10,61
461,914	10,6
462,267	10,6
462,621	10,62
462,974	10,64
463,328	10,65
463,681	10,69
464,035	10,73
464,388	10,76
464,742	10,8
465,095	10,83
465,448	10,84
465,801	10,83
466,155	10,83
466,508	10,82
466,861	10,8
467,214	10,8
467,567	10,79
467,92	10,81
468,273	10,83
468,626	10,85
468,979	10,86
469,332	10,86
469,684	10,86
470,037	10,87
470,39	10,87
470,743	10,88
471,095	10,88
471,448	10,86
471,8	10,86
472,153	10,88
472,505	10,88
472,858	10,91
473,21	10,93
473,562	10,94
473,915	10,93
474,267	10,95
474,619	10,95
474,971	10,97
475,324	10,95
475,676	10,96
476,028	10,95
476,38	10,95
476,732	10,96
477,084	10,95
477,436	10,93
477,787	10,94
478,139	10,93
478,491	10,93
478,843	10,92
479,195	10,92
479,546	10,89
479,898	10,86
480,249	10,83
480,601	10,82
480,952	10,8
481,304	10,77
481,655	10,76
482,007	10,74
482,358	10,71
482,709	10,7
483,061	10,69
483,412	10,68
483,763	10,67
484,114	10,67
484,465	10,66
484,816	10,66
485,167	10,66
485,518	10,65
485,869	10,64
486,22	10,63
486,571	10,62
486,922	10,62
487,272	10,63
487,623	10,63
487,974	10,63
488,324	10,64
488,675	10,65
489,025	10,65
489,376	10,67
489,726	10,68
490,077	10,68
490,427	10,69
490,778	10,7
491,128	10,71
491,478	10,72
491,828	10,74
492,179	10,76
492,529	10,77
492,879	10,8
493,229	10,84
493,579	10,86
493,929	10,89
494,279	10,92
494,629	10,92
494,979	10,93
495,328	10,95
495,678	10,97
496,028	10,99
496,378	11,02
496,727	11,06
497,077	11,09
497,426	11,14
497,776	11,14
498,125	11,15
498,475	11,17
498,824	11,17
499,174	11,17
499,523	11,2
499,872	11,18
500,221	11,2
500,571	11,22
500,92	11,24
501,269	11,25
501,618	11,23
501,967	11,25
502,316	11,25
502,665	11,25
503,014	11,27
503,363	11,28
503,711	11,3
504,06	11,32
504,409	11,33
504,758	11,31
505,106	11,33
505,455	11,33
505,803	11,32
506,152	11,31
506,5	11,32
506,849	11,3
507,197	11,31
507,546	11,32
507,894	11,29
508,242	11,28
508,59	11,27
508,939	11,28
509,287	11,29
509,635	11,29
509,983	11,31
510,331	11,31
510,679	11,31
511,027	11,29
511,375	11,29
511,723	11,29
512,07	11,31
512,418	11,31
512,766	11,33
513,114	11,35
513,461	11,37
513,809	11,38
514,156	11,41
514,504	11,42
514,851	11,44
515,199	11,45
515,546	11,44
515,893	11,44
516,241	11,45
516,588	11,43
516,935	11,44
517,282	11,42
517,63	11,44
517,977	11,43
518,324	11,44
518,671	11,42
519,018	11,44
519,365	11,44
519,711	11,45
520,058	11,44
520,405	11,45
520,752	11,47
521,099	11,47
521,445	11,47
521,792	11,47
522,138	11,46
522,485	11,48
522,832	11,51
523,178	11,52
523,524	11,52
523,871	11,53
524,217	11,54
524,563	11,54
524,91	11,52
525,256	11,52
525,602	11,51
525,948	11,51
526,294	11,49
526,64	11,46
526,986	11,44
527,332	11,41
527,678	11,4
528,024	11,38
528,37	11,38
528,716	11,37
529,061	11,38
529,407	11,37
529,753	11,36
530,098	11,35
530,444	11,36
530,789	11,35
531,135	11,34
531,48	11,32
531,826	11,31
532,171	11,32
532,516	11,31
532,862	11,32
533,207	11,32
533,552	11,33
533,897	11,35
534,242	11,35
534,587	11,39
534,932	11,41
535,277	11,42
535,622	11,43
535,967	11,45
536,312	11,46
536,657	11,48
537,001	11,51
537,346	11,53
537,691	11,54
538,035	11,57
538,38	11,59
538,724	11,62
539,069	11,61
539,413	11,61
539,758	11,59
540,102	11,59
540,446	11,58
540,791	11,57
541,135	11,57
541,479	11,6
541,823	11,61
542,167	11,6
542,512	11,61
542,856	11,6
543,2	11,59
543,543	11,59
543,887	11,58
544,231	11,59
544,575	11,58
544,919	11,57
545,262	11,58
545,606	11,59
545,95	11,6
546,293	11,63
546,637	11,64
546,98	11,66
547,324	11,67
547,667	11,72
548,011	11,76
548,354	11,79
548,697	11,78
549,04	11,79
549,384	11,82
549,727	11,82
550,07	11,83
550,413	11,83
550,756	11,83
551,099	11,83
551,442	11,82
551,785	11,83
552,128	11,84
552,47	11,85
552,813	11,82
553,156	11,82
553,499	11,81
553,841	11,81
554,184	11,82
554,526	11,83
554,869	11,76
555,211	11,74
555,554	11,73
555,896	11,72
556,238	11,69
556,581	11,64
556,923	11,61
557,265	11,6
557,607	11,62
557,949	11,61
558,291	11,61
558,633	11,59
558,975	11,58
559,317	11,55
559,659	11,52
560,001	11,52
560,343	11,52
560,685	11,51
561,026	11,48
561,368	11,45
561,71	11,43
562,051	11,43
562,393	11,44
562,734	11,42
563,076	11,43
563,417	11,43
563,759	11,46
564,1	11,44
564,441	11,43
564,782	11,37
565,124	11,35
565,465	11,34
565,806	11,32
566,147	11,32
566,488	11,3
566,829	11,31
567,17	11,3
567,511	11,27
567,851	11,28
568,192	11,29
568,533	11,3
568,874	11,29
569,214	11,29
569,555	11,24
569,895	11,23
570,236	11,19
570,576	11,15
570,917	11,11
571,257	11,1
571,598	11,1
571,938	11,12
572,278	11,12
572,618	11,12
572,959	11,1
573,299	11,1
573,639	11,07
573,979	11,05
574,319	11,05
574,659	11,03
574,999	10,99
575,339	10,96
575,678	10,95
576,018	10,95
576,358	10,91
576,698	10,91
577,037	10,88
577,377	10,9
577,716	10,91
578,056	10,91
578,395	10,9
578,735	10,89
579,074	10,88
579,413	10,87
579,753	10,87
580,092	10,85
580,431	10,81
580,77	10,84
581,109	10,85
581,448	10,82
581,787	10,79
582,126	10,79
582,465	10,78
582,804	10,75
583,143	10,74
583,482	10,75
583,82	10,76
584,159	10,77
584,498	10,75
584,836	10,74
585,175	10,73
585,514	10,74
585,852	10,74
586,19	10,73
586,529	10,71
586,867	10,68
587,205	10,7
587,544	10,72
587,882	10,71
588,22	10,72
588,558	10,71
588,896	10,74
589,234	10,74
589,572	10,74
589,91	10,75
590,248	10,7
590,586	10,7
590,924	10,69
591,262	10,7
591,599	10,7
591,937	10,72
592,275	10,71
592,612	10,71
592,95	10,74
593,287	10,8
593,625	10,86
593,962	10,89
594,299	10,93
594,637	10,96
594,974	10,98
595,311	11,02
595,648	11,06
595,985	11,07
596,322	11,09
596,659	11,1
596,996	11,11
597,333	11,13
597,67	11,13
598,007	11,15
598,344	11,14
598,681	11,15
599,017	11,14
599,354	11,15
599,691	11,15
600,027	11,16
600,364	11,15
600,7	11,14
601,037	11,18
601,373	11,19
601,71	11,17
602,046	11,17
602,382	11,15
602,718	11,14
603,054	11,14
603,391	11,14
603,727	11,17
604,063	11,17
604,399	11,21
604,735	11,24
605,071	11,25
605,406	11,28
605,742	11,31
606,078	11,34
606,414	11,36
606,749	11,38
607,085	11,38
607,421	11,37
607,756	11,35
608,092	11,3
608,427	11,27
608,762	11,28
609,098	11,27
609,433	11,27
609,768	11,26
610,104	11,26
610,439	11,25
610,774	11,25
611,109	11,25
611,444	11,24
611,779	11,21
612,114	11,2
612,449	11,19
612,784	11,17
613,118	11,15
613,453	11,11
613,788	11,06
614,123	11,03
614,457	11
614,792	10,99
615,126	10,97
615,461	10,95
615,795	10,98
616,13	10,97
616,464	10,95
616,798	10,96
617,132	10,95
617,467	10,95
617,801	10,95
618,135	10,94
618,469	10,95
618,803	11
619,137	11,03
619,471	11,04
619,805	11,04
620,139	11,04
620,472	11,06
620,806	11,06
621,14	11,06
621,473	11,1
621,807	11,11
622,141	11,15
622,474	11,18
622,808	11,17
623,141	11,18
623,474	11,23
623,808	11,27
624,141	11,31
624,474	11,34
624,807	11,34
625,141	11,31
625,474	11,3
625,807	11,28
626,14	11,25
626,473	11,25
626,806	11,29
627,138	11,32
627,471	11,31
627,804	11,33
628,137	11,36
628,469	11,34
628,802	11,33
629,135	11,34
629,467	11,33
629,8	11,33
630,132	11,32
630,465	11,33
630,797	11,32
631,129	11,31
631,461	11,33
631,794	11,36
632,126	11,38
632,458	11,39
632,79	11,42
633,122	11,43
633,454	11,43
633,786	11,39
634,118	11,36
634,45	11,38
634,781	11,38
635,113	11,37
635,445	11,37
635,777	11,38
636,108	11,37
636,44	11,38
636,771	11,37
637,103	11,36
637,434	11,33
637,765	11,31
638,097	11,31
638,428	11,29
638,759	11,26
639,09	11,28
639,422	11,3
639,753	11,29
640,084	11,29
640,415	11,31
640,746	11,33
641,077	11,33
641,407	11,34
641,738	11,34
642,069	11,35
642,4	11,35
642,73	11,37
643,061	11,36
643,392	11,35
643,722	11,36
644,053	11,38
644,383	11,39
644,713	11,38
645,044	11,36
645,374	11,39
645,704	11,4
646,034	11,41
646,365	11,4
646,695	11,39
647,025	11,44
647,355	11,48
647,685	11,5
648,015	11,54
648,344	11,54
648,674	11,52
