Data from zc74010_2_Reflection_00001.txt Node
Date: Thu Mar 12 14:59:36 ART 2020
User: Ana
Spectrometer: USB2E3644
Trigger mode: 4
Integration Time (sec): 5,000000E-2
Scans to average: 10
Electric dark correction enabled: true
Nonlinearity correction enabled: false
Boxcar width: 10
XAxis mode: Wavelengths
Number of Pixels in Spectrum: 2048
>>>>>Begin Spectral Data<<<<<
178,315	95,79
178,696	95,35
179,076	92,82
179,457	82,72
179,838	85,71
180,218	115,56
180,599	666,67
180,979	90,32
181,36	266,67
181,74	146,3
182,121	117,5
182,501	103,29
182,881	98,93
183,262	98,23
183,642	96,93
184,022	95,27
184,402	95,87
184,783	97,01
185,163	98,11
185,543	100,51
185,923	103,16
186,303	104,21
186,683	104,52
187,063	106,56
187,443	108,6
187,823	110,05
188,203	111,21
188,583	112,69
188,963	110,95
189,343	109,38
189,723	110,02
190,102	114,26
190,482	119,73
190,862	121,86
191,242	122,06
191,621	122,12
192,001	123,1
192,38	124,31
192,76	122,8
193,14	121,99
193,519	120,86
193,898	120
194,278	119,35
194,657	120,09
195,037	119,59
195,416	117,27
195,795	117,08
196,175	117,01
196,554	116,46
196,933	116,38
197,312	116,78
197,692	116,82
198,071	115,58
198,45	114,75
198,829	115,09
199,208	116,7
199,587	117,56
199,966	117,35
200,345	116,01
200,724	116,18
201,103	116,86
201,482	117,43
201,86	117,22
202,239	114,82
202,618	113,31
202,997	113,42
203,375	114,63
203,754	114,99
204,133	115,55
204,511	115,77
204,89	115,86
205,269	115,39
205,647	114,64
206,026	113,95
206,404	113,83
206,782	113,41
207,161	112,54
207,539	111,64
207,918	111,46
208,296	112,74
208,674	113,29
209,052	113,39
209,431	113,68
209,809	114,29
210,187	116,05
210,565	116,87
210,943	116,31
211,321	115,6
211,699	116,27
212,077	116,7
212,455	116,67
212,833	117,24
213,211	117,74
213,589	118,29
213,967	118,01
214,345	117,2
214,722	117,86
215,1	118,58
215,478	119,29
215,855	120,16
216,233	120,02
216,611	120,3
216,988	120,26
217,366	119,5
217,743	119,84
218,121	121,06
218,498	122,43
218,876	122,69
219,253	122,06
219,631	119,93
220,008	117,64
220,385	116,87
220,762	115,96
221,14	114,49
221,517	113,32
221,894	113,47
222,271	113,28
222,648	112
223,025	110,05
223,402	108,74
223,78	108,04
224,157	107,8
224,533	107,57
224,91	108,08
225,287	109,94
225,664	111,26
226,041	111,35
226,418	110,74
226,795	110,81
227,171	110,95
227,548	112,73
227,925	115,05
228,301	117,01
228,678	118,71
229,055	120,63
229,431	122,64
229,808	124,79
230,184	126,61
230,561	128,62
230,937	131,43
231,313	132,79
231,69	133,46
232,066	134,79
232,442	135,86
232,819	136,12
233,195	134,9
233,571	134,61
233,947	137
234,323	139,39
234,699	140,92
235,075	142,53
235,451	143,6
235,827	145,78
236,203	146,58
236,579	148,5
236,955	153,49
237,331	161,8
237,707	171,77
238,083	183,71
238,459	200
238,834	226,78
239,21	270,32
239,586	328,53
239,961	390,79
240,337	460
240,713	523,58
241,088	599,5
241,464	693,71
241,839	816,67
242,215	1091,23
242,59	2581,63
242,965	-1592,5
243,341	-454,77
243,716	-246,07
244,091	-177,06
244,467	-146,09
244,842	-128,14
245,217	-116,5
245,592	-110,75
245,967	-110,08
246,343	-106,47
246,718	-104,05
247,093	-105,89
247,468	-108,39
247,843	-108,45
248,218	-104,54
248,593	-97,91
248,967	-90,45
249,342	-85,84
249,717	-83,17
250,092	-81,63
250,467	-82,8
250,841	-88,58
251,216	-101,6
251,591	-123,3
251,965	-147,94
252,34	-167,19
252,714	-187,87
253,089	-202,05
253,463	-210,74
253,838	-206,94
254,212	-201,93
254,587	-192,56
254,961	-171,56
255,335	-146,36
255,71	-120,84
256,084	-93,89
256,458	-74,65
256,832	-63,24
257,206	-57,09
257,581	-53,71
257,955	-51,47
258,329	-48,79
258,703	-46,1
259,077	-44,01
259,451	-41,99
259,825	-40,92
260,199	-40,94
260,572	-40,16
260,946	-40,02
261,32	-39,9
261,694	-39,54
262,068	-39,31
262,441	-38,87
262,815	-38,8
263,189	-38,72
263,562	-39,43
263,936	-42,03
264,309	-45,65
264,683	-49,87
265,056	-52,27
265,43	-53,56
265,803	-53,52
266,176	-53,07
266,55	-52,64
266,923	-51,55
267,296	-50,34
267,67	-48,18
268,043	-45,92
268,416	-43,37
268,789	-40,55
269,162	-37,75
269,535	-35,53
269,908	-33,81
270,281	-32,7
270,654	-32,44
271,027	-32,68
271,4	-32,88
271,773	-32,93
272,146	-33,24
272,519	-33,19
272,891	-33,06
273,264	-33,14
273,637	-33,37
274,01	-33,53
274,382	-34,29
274,755	-34,76
275,127	-34,97
275,5	-35,25
275,872	-35,22
276,245	-35,16
276,617	-35,75
276,99	-36,52
277,362	-37,66
277,734	-38,31
278,107	-38,2
278,479	-37,72
278,851	-36,96
279,223	-36,22
279,596	-35,58
279,968	-35,04
280,34	-34,14
280,712	-33,27
281,084	-31,58
281,456	-29,81
281,828	-28,24
282,2	-25,94
282,572	-24,11
282,944	-22,81
283,315	-22,03
283,687	-21,33
284,059	-20,98
284,431	-20,57
284,802	-19,9
285,174	-19,38
285,546	-18,81
285,917	-18,19
286,289	-17,57
286,66	-17,3
287,032	-16,85
287,403	-16,5
287,775	-16,26
288,146	-16,34
288,518	-16,37
288,889	-16,33
289,26	-16,3
289,632	-16,57
290,003	-17,1
290,374	-17,6
290,745	-18
291,116	-18,26
291,487	-18,59
291,858	-18,72
292,229	-18,63
292,6	-18,49
292,971	-17,78
293,342	-17,13
293,713	-16,48
294,084	-15,87
294,455	-14,92
294,826	-14,45
295,196	-14,33
295,567	-14,46
295,938	-14,36
296,308	-14,31
296,679	-14,21
297,05	-14,15
297,42	-13,82
297,791	-13,48
298,161	-13,36
298,532	-12,95
298,902	-12,47
299,272	-12,13
299,643	-11,92
300,013	-11,66
300,383	-11,55
300,754	-11,8
301,124	-12,2
301,494	-12,62
301,864	-13,01
302,234	-13,56
302,604	-13,82
302,974	-13,72
303,344	-13,41
303,714	-13,17
304,084	-12,89
304,454	-12,9
304,824	-12,85
305,194	-12,8
305,563	-12,73
305,933	-12,48
306,303	-12,32
306,673	-12,04
307,042	-11,52
307,412	-10,88
307,781	-10,24
308,151	-9,85
308,521	-9,47
308,89	-9,12
309,259	-9,03
309,629	-8,95
309,998	-8,88
310,368	-8,88
310,737	-8,78
311,106	-8,65
311,475	-8,53
311,845	-8,54
312,214	-8,32
312,583	-8,15
312,952	-8,1
313,321	-7,97
313,69	-7,73
314,059	-7,57
314,428	-7,63
314,797	-7,84
315,166	-8,24
315,535	-8,79
315,904	-9,19
316,272	-9,41
316,641	-9,58
317,01	-9,55
317,379	-9,46
317,747	-9,19
318,116	-8,83
318,484	-8,7
318,853	-8,6
319,221	-8,45
319,59	-8,4
319,958	-8,43
320,327	-8,41
320,695	-8,3
321,063	-8,16
321,432	-7,98
321,8	-7,8
322,168	-7,69
322,536	-7,65
322,905	-7,29
323,273	-6,87
323,641	-6,44
324,009	-6,11
324,377	-5,92
324,745	-5,67
325,113	-5,31
325,481	-5
325,849	-4,74
326,216	-4,48
326,584	-4,26
326,952	-4,07
327,32	-3,76
327,687	-3,44
328,055	-3,11
328,423	-2,89
328,79	-2,8
329,158	-2,83
329,525	-2,86
329,893	-2,8
330,26	-2,66
330,628	-2,62
330,995	-2,61
331,362	-2,66
331,73	-2,65
332,097	-2,55
332,464	-2,37
332,831	-2,28
333,199	-2,31
333,566	-2,36
333,933	-2,31
334,3	-2,2
334,667	-2,13
335,034	-2,01
335,401	-2
335,768	-2,03
336,135	-2,04
336,502	-1,99
336,868	-1,85
337,235	-1,69
337,602	-1,5
337,969	-1,31
338,335	-1,18
338,702	-1
339,069	-0,86
339,435	-0,78
339,802	-0,64
340,168	-0,58
340,535	-0,5
340,901	-0,49
341,267	-0,44
341,634	-0,37
342	-0,33
342,366	-0,25
342,733	-0,29
343,099	-0,21
343,465	-0,12
343,831	0
344,197	0,13
344,563	0,18
344,929	0,21
345,295	0,33
345,661	0,45
346,027	0,51
346,393	0,5
346,759	0,56
347,125	0,59
347,491	0,63
347,856	0,66
348,222	0,67
348,588	0,83
348,953	0,99
349,319	1,02
349,684	1,11
350,05	1,2
350,415	1,4
350,781	1,55
351,146	1,66
351,512	1,74
351,877	1,75
352,242	1,79
352,608	1,92
352,973	1,96
353,338	1,97
353,703	2,07
354,068	2,2
354,433	2,32
354,798	2,47
355,164	2,59
355,528	2,66
355,893	2,69
356,258	2,69
356,623	2,73
356,988	2,84
357,353	2,86
357,718	2,87
358,082	2,88
358,447	2,86
358,812	2,95
359,176	3,01
359,541	3,09
359,905	3,16
360,27	3,15
360,634	3,21
360,999	3,3
361,363	3,3
361,728	3,33
362,092	3,4
362,456	3,45
362,821	3,52
363,185	3,61
363,549	3,73
363,913	3,78
364,277	3,82
364,641	3,85
365,005	3,93
365,369	4,01
365,733	4,09
366,097	4,17
366,461	4,25
366,825	4,37
367,189	4,45
367,553	4,56
367,916	4,72
368,28	4,81
368,644	4,9
369,007	5,04
369,371	5,18
369,734	5,26
370,098	5,34
370,461	5,41
370,825	5,45
371,188	5,51
371,552	5,6
371,915	5,67
372,278	5,78
372,642	5,87
373,005	5,97
373,368	6,08
373,731	6,18
374,094	6,25
374,457	6,29
374,82	6,42
375,183	6,49
375,546	6,53
375,909	6,59
376,272	6,68
376,635	6,74
376,998	6,8
377,361	6,86
377,723	6,95
378,086	7,05
378,449	7,11
378,811	7,18
379,174	7,26
379,537	7,35
379,899	7,41
380,262	7,46
380,624	7,54
380,987	7,6
381,349	7,66
381,711	7,71
382,074	7,79
382,436	7,82
382,798	7,91
383,16	7,99
383,522	8,03
383,884	8,06
384,247	8,14
384,609	8,2
384,971	8,22
385,333	8,22
385,695	8,22
386,056	8,23
386,418	8,21
386,78	8,23
387,142	8,26
387,504	8,26
387,865	8,28
388,227	8,27
388,589	8,31
388,95	8,35
389,312	8,37
389,673	8,36
390,035	8,35
390,396	8,33
390,758	8,34
391,119	8,37
391,48	8,41
391,842	8,4
392,203	8,38
392,564	8,4
392,925	8,44
393,286	8,46
393,648	8,49
394,009	8,57
394,37	8,61
394,731	8,66
395,092	8,7
395,452	8,73
395,813	8,79
396,174	8,8
396,535	8,81
396,896	8,83
397,257	8,87
397,617	8,94
397,978	9
398,338	9,01
398,699	9,05
399,06	9,09
399,42	9,11
399,781	9,15
400,141	9,17
400,501	9,16
400,862	9,19
401,222	9,21
401,582	9,2
401,943	9,22
402,303	9,23
402,663	9,26
403,023	9,27
403,383	9,27
403,743	9,27
404,103	9,29
404,463	9,32
404,823	9,36
405,183	9,36
405,543	9,37
405,903	9,38
406,262	9,37
406,622	9,32
406,982	9,34
407,342	9,37
407,701	9,41
408,061	9,44
408,42	9,46
408,78	9,51
409,139	9,53
409,499	9,54
409,858	9,54
410,217	9,56
410,577	9,57
410,936	9,56
411,295	9,57
411,655	9,54
412,014	9,52
412,373	9,47
412,732	9,43
413,091	9,4
413,45	9,36
413,809	9,34
414,168	9,33
414,527	9,27
414,886	9,22
415,245	9,16
415,603	9,14
415,962	9,07
416,321	9,01
416,679	8,98
417,038	8,95
417,397	8,91
417,755	8,85
418,114	8,83
418,472	8,8
418,831	8,78
419,189	8,76
419,547	8,74
419,906	8,75
420,264	8,73
420,622	8,7
420,981	8,7
421,339	8,69
421,697	8,68
422,055	8,71
422,413	8,72
422,771	8,76
423,129	8,77
423,487	8,8
423,845	8,83
424,203	8,86
424,56	8,89
424,918	8,92
425,276	8,97
425,634	9
425,991	9,04
426,349	9,07
426,707	9,12
427,064	9,17
427,422	9,18
427,779	9,24
428,137	9,31
428,494	9,38
428,851	9,41
429,209	9,43
429,566	9,42
429,923	9,41
430,28	9,38
430,637	9,39
430,995	9,38
431,352	9,34
431,709	9,32
432,066	9,33
432,423	9,34
432,78	9,33
433,137	9,3
433,493	9,3
433,85	9,35
434,207	9,32
434,564	9,29
434,92	9,28
435,277	9,28
435,634	9,28
435,99	9,24
436,347	9,23
436,703	9,25
437,06	9,26
437,416	9,27
437,773	9,25
438,129	9,24
438,485	9,27
438,841	9,28
439,198	9,26
439,554	9,25
439,91	9,25
440,266	9,25
440,622	9,27
440,978	9,26
441,334	9,22
441,69	9,23
442,046	9,22
442,402	9,22
442,758	9,22
443,113	9,21
443,469	9,2
443,825	9,2
444,181	9,19
444,536	9,2
444,892	9,19
445,247	9,22
445,603	9,22
445,958	9,22
446,314	9,23
446,669	9,26
447,025	9,27
447,38	9,28
447,735	9,29
448,09	9,29
448,446	9,3
448,801	9,32
449,156	9,33
449,511	9,37
449,866	9,4
450,221	9,43
450,576	9,46
450,931	9,53
451,286	9,59
451,641	9,63
451,995	9,66
452,35	9,7
452,705	9,72
453,06	9,73
453,414	9,74
453,769	9,74
454,123	9,73
454,478	9,73
454,832	9,73
455,187	9,71
455,541	9,72
455,896	9,71
456,25	9,68
456,604	9,67
456,958	9,64
457,313	9,61
457,667	9,59
458,021	9,59
458,375	9,6
458,729	9,59
459,083	9,59
459,437	9,6
459,791	9,6
460,145	9,6
460,499	9,6
460,852	9,59
461,206	9,59
461,56	9,6
461,914	9,61
462,267	9,59
462,621	9,61
462,974	9,62
463,328	9,62
463,681	9,64
464,035	9,66
464,388	9,68
464,742	9,7
465,095	9,74
465,448	9,75
465,801	9,73
466,155	9,71
466,508	9,68
466,861	9,67
467,214	9,66
467,567	9,65
467,92	9,66
468,273	9,66
468,626	9,65
468,979	9,65
469,332	9,65
469,684	9,66
470,037	9,67
470,39	9,66
470,743	9,68
471,095	9,68
471,448	9,69
471,8	9,71
472,153	9,73
472,505	9,73
472,858	9,72
473,21	9,74
473,562	9,76
473,915	9,79
474,267	9,79
474,619	9,79
474,971	9,79
475,324	9,77
475,676	9,78
476,028	9,8
476,38	9,8
476,732	9,8
477,084	9,8
477,436	9,78
477,787	9,76
478,139	9,76
478,491	9,75
478,843	9,73
479,195	9,73
479,546	9,7
479,898	9,67
480,249	9,63
480,601	9,6
480,952	9,58
481,304	9,57
481,655	9,56
482,007	9,55
482,358	9,54
482,709	9,54
483,061	9,54
483,412	9,53
483,763	9,52
484,114	9,52
484,465	9,51
484,816	9,51
485,167	9,5
485,518	9,5
485,869	9,5
486,22	9,49
486,571	9,49
486,922	9,49
487,272	9,49
487,623	9,5
487,974	9,5
488,324	9,51
488,675	9,5
489,025	9,5
489,376	9,51
489,726	9,51
490,077	9,52
490,427	9,51
490,778	9,52
491,128	9,53
491,478	9,54
491,828	9,56
492,179	9,56
492,529	9,61
492,879	9,63
493,229	9,64
493,579	9,67
493,929	9,68
494,279	9,71
494,629	9,72
494,979	9,74
495,328	9,77
495,678	9,8
496,028	9,83
496,378	9,83
496,727	9,86
497,077	9,89
497,426	9,91
497,776	9,92
498,125	9,94
498,475	9,95
498,824	9,96
499,174	9,96
499,523	9,99
499,872	9,98
500,221	9,98
500,571	9,99
500,92	10
501,269	10,01
501,618	10,01
501,967	10,01
502,316	10,02
502,665	10,04
503,014	10,03
503,363	10,03
503,711	10,04
504,06	10,07
504,409	10,07
504,758	10,06
505,106	10,04
505,455	10,03
505,803	10,03
506,152	10,03
506,5	10,03
506,849	10,03
507,197	10,03
507,546	10,02
507,894	10,03
508,242	10,04
508,59	10,03
508,939	10,01
509,287	10,01
509,635	10,01
509,983	10,01
510,331	10,02
510,679	10,03
511,027	10,05
511,375	10,03
511,723	10,03
512,07	10,04
512,418	10,08
512,766	10,08
513,114	10,1
513,461	10,12
513,809	10,13
514,156	10,13
514,504	10,14
514,851	10,14
515,199	10,12
515,546	10,11
515,893	10,1
516,241	10,11
516,588	10,11
516,935	10,11
517,282	10,11
517,63	10,12
517,977	10,12
518,324	10,13
518,671	10,15
519,018	10,16
519,365	10,15
519,711	10,15
520,058	10,16
520,405	10,16
520,752	10,16
521,099	10,17
521,445	10,17
521,792	10,18
522,138	10,18
522,485	10,19
522,832	10,21
523,178	10,22
523,524	10,22
523,871	10,22
524,217	10,22
524,563	10,19
524,91	10,16
525,256	10,11
525,602	10,08
525,948	10,08
526,294	10,07
526,64	10,07
526,986	10,05
527,332	10,03
527,678	10,03
528,024	10,03
528,37	10,04
528,716	10,04
529,061	10,02
529,407	10,02
529,753	10,02
530,098	10,02
530,444	10,02
530,789	10,03
531,135	10,03
531,48	10,02
531,826	10,02
532,171	10,04
532,516	10,06
532,862	10,08
533,207	10,07
533,552	10,09
533,897	10,1
534,242	10,12
534,587	10,13
534,932	10,13
535,277	10,13
535,622	10,12
535,967	10,14
536,312	10,17
536,657	10,19
537,001	10,19
537,346	10,2
537,691	10,2
538,035	10,2
538,38	10,19
538,724	10,21
539,069	10,21
539,413	10,21
539,758	10,21
540,102	10,22
540,446	10,21
540,791	10,2
541,135	10,19
541,479	10,2
541,823	10,21
542,167	10,21
542,512	10,22
542,856	10,21
543,2	10,19
543,543	10,19
543,887	10,18
544,231	10,2
544,575	10,19
544,919	10,21
545,262	10,23
545,606	10,25
545,95	10,25
546,293	10,25
546,637	10,26
546,98	10,27
547,324	10,27
547,667	10,32
548,011	10,3
548,354	10,32
548,697	10,3
549,04	10,3
549,384	10,31
549,727	10,29
550,07	10,28
550,413	10,28
550,756	10,27
551,099	10,26
551,442	10,25
551,785	10,26
552,128	10,26
552,47	10,26
552,813	10,29
553,156	10,29
553,499	10,28
553,841	10,29
554,184	10,29
554,526	10,26
554,869	10,21
555,211	10,23
555,554	10,22
555,896	10,21
556,238	10,17
556,581	10,14
556,923	10,13
557,265	10,14
557,607	10,12
557,949	10,11
558,291	10,09
558,633	10,06
558,975	10,03
559,317	9,99
559,659	9,94
560,001	9,88
560,343	9,85
560,685	9,85
561,026	9,83
561,368	9,82
561,71	9,82
562,051	9,81
562,393	9,8
562,734	9,75
563,076	9,75
563,417	9,75
563,759	9,75
564,1	9,73
564,441	9,72
564,782	9,7
565,124	9,68
565,465	9,68
565,806	9,68
566,147	9,67
566,488	9,67
566,829	9,67
567,17	9,67
567,511	9,65
567,851	9,62
568,192	9,59
568,533	9,57
568,874	9,57
569,214	9,59
569,555	9,55
569,895	9,56
570,236	9,53
570,576	9,52
570,917	9,5
571,257	9,49
571,598	9,48
571,938	9,49
572,278	9,49
572,618	9,49
572,959	9,49
573,299	9,46
573,639	9,43
573,979	9,42
574,319	9,41
574,659	9,4
574,999	9,39
575,339	9,38
575,678	9,38
576,018	9,35
576,358	9,32
576,698	9,31
577,037	9,29
577,377	9,3
577,716	9,26
578,056	9,24
578,395	9,2
578,735	9,17
579,074	9,15
579,413	9,13
579,753	9,1
580,092	9,04
580,431	9
580,77	9,01
581,109	8,97
581,448	8,95
581,787	8,92
582,126	8,92
582,465	8,89
582,804	8,87
583,143	8,87
583,482	8,85
583,82	8,82
584,159	8,81
584,498	8,78
584,836	8,78
585,175	8,77
585,514	8,78
585,852	8,76
586,19	8,76
586,529	8,74
586,867	8,71
587,205	8,72
587,544	8,75
587,882	8,74
588,22	8,76
588,558	8,77
588,896	8,8
589,234	8,8
589,572	8,79
589,91	8,78
590,248	8,77
590,586	8,77
590,924	8,8
591,262	8,8
591,599	8,82
591,937	8,84
592,275	8,85
592,612	8,87
592,95	8,93
593,287	8,93
593,625	8,95
593,962	8,98
594,299	8,99
594,637	9,02
594,974	9,02
595,311	9,05
595,648	9,07
595,985	9,06
596,322	9,05
596,659	9,07
596,996	9,07
597,333	9,06
597,67	9,03
598,007	9,02
598,344	9,03
598,681	9,03
599,017	9,03
599,354	9,01
599,691	8,99
600,027	8,97
600,364	8,99
600,7	9,01
601,037	9,01
601,373	9,03
601,71	9,04
602,046	9,06
602,382	9,06
602,718	9,07
603,054	9,07
603,391	9,08
603,727	9,11
604,063	9,11
604,399	9,14
604,735	9,17
605,071	9,16
605,406	9,17
605,742	9,16
606,078	9,16
606,414	9,21
606,749	9,24
607,085	9,25
607,421	9,23
607,756	9,21
608,092	9,19
608,427	9,17
608,762	9,12
609,098	9,1
609,433	9,08
609,768	9,06
610,104	9,07
610,439	9,06
610,774	9,02
611,109	9,01
611,444	8,99
611,779	8,98
612,114	8,99
612,449	9
612,784	8,98
613,118	8,96
613,453	8,92
613,788	8,88
614,123	8,83
614,457	8,8
614,792	8,78
615,126	8,79
615,461	8,78
615,795	8,79
616,13	8,75
616,464	8,72
616,798	8,71
617,132	8,68
617,467	8,63
617,801	8,63
618,135	8,63
618,469	8,64
618,803	8,64
619,137	8,63
619,471	8,6
619,805	8,6
620,139	8,62
620,472	8,63
620,806	8,61
621,14	8,6
621,473	8,59
621,807	8,55
622,141	8,54
622,474	8,52
622,808	8,52
623,141	8,54
623,474	8,56
623,808	8,56
624,141	8,61
624,474	8,68
624,807	8,73
625,141	8,75
625,474	8,76
625,807	8,76
626,14	8,75
626,473	8,77
626,806	8,78
627,138	8,78
627,471	8,75
627,804	8,74
628,137	8,77
628,469	8,78
628,802	8,82
629,135	8,8
629,467	8,81
629,8	8,81
630,132	8,8
630,465	8,78
630,797	8,77
631,129	8,74
631,461	8,68
631,794	8,63
632,126	8,61
632,458	8,58
632,79	8,59
633,122	8,62
633,454	8,59
633,786	8,57
634,118	8,56
634,45	8,61
634,781	8,64
635,113	8,63
635,445	8,65
635,777	8,66
636,108	8,66
636,44	8,67
636,771	8,69
637,103	8,71
637,434	8,72
637,765	8,69
638,097	8,65
638,428	8,68
638,759	8,69
639,09	8,7
639,422	8,72
639,753	8,7
640,084	8,67
640,415	8,66
640,746	8,66
641,077	8,69
641,407	8,65
641,738	8,63
642,069	8,6
642,4	8,59
642,73	8,56
643,061	8,59
643,392	8,6
643,722	8,6
644,053	8,58
644,383	8,57
644,713	8,58
645,044	8,59
645,374	8,57
645,704	8,56
646,034	8,52
646,365	8,5
646,695	8,48
647,025	8,49
647,355	8,5
647,685	8,52
648,015	8,51
648,344	8,51
648,674	8,53
649,004	8,55
649,334	8,55
649,663	8,57
649,993	8,57
650,323	8,57
650,652	8,58
650,982	8,59
651,311	8,59
651,64	8,6
651,97	8,61
652,299	8,62
652,628	8,63
652,958	8,65
653,287	8,68
653,616	8,72
653,945	8,74
654,274	8,76
654,603	8,74
654,932	8,74
655,261	8,73
655,589	8,74
655,918	8,77
656,247	8,79
656,576	8,83
656,904	8,87
657,233	8,9
657,561	8,94
657,89	8,98
658,218	9,01
658,547	9,04
658,875	9,07
659,203	9,09
659,532	9,1
659,86	9,12
660,188	9,1
660,516	9,09
660,844	9,08
