Data from zc74051_4_Reflection_00001.txt Node
Date: Thu Mar 12 15:05:07 ART 2020
User: Ana
Spectrometer: USB2E3644
Trigger mode: 4
Integration Time (sec): 5,000000E-2
Scans to average: 10
Electric dark correction enabled: true
Nonlinearity correction enabled: false
Boxcar width: 10
XAxis mode: Wavelengths
Number of Pixels in Spectrum: 2048
>>>>>Begin Spectral Data<<<<<
178,315	119,47
178,696	115,32
179,076	115,58
179,457	112,31
179,838	119,87
180,218	188,89
180,599	-319,44
180,979	178,95
181,36	307,78
181,74	144,44
182,121	104,81
182,501	98,9
182,881	91,13
183,262	90,67
183,642	89,58
184,022	88,35
184,402	88,18
184,783	86,79
185,163	86,5
185,543	88,41
185,923	90,63
186,303	93,69
186,683	96,67
187,063	97,81
187,443	98,29
187,823	98,13
188,203	98,62
188,583	98,86
188,963	97,82
189,343	96,37
189,723	96,33
190,102	96,6
190,482	97,67
190,862	98,49
191,242	98,08
191,621	98,72
192,001	100,59
192,38	101,83
192,76	103,57
193,14	104,45
193,519	104,77
193,898	104,17
194,278	102,04
194,657	99,78
195,037	99,55
195,416	99,91
195,795	101,12
196,175	102,76
196,554	102,93
196,933	102,77
197,312	102,84
197,692	102,61
198,071	103,42
198,45	105,39
198,829	106,94
199,208	107,84
199,587	108,37
199,966	109,26
200,345	110,72
200,724	112,17
201,103	113,01
201,482	113,56
201,86	113,73
202,239	114,26
202,618	114,61
202,997	115,36
203,375	115,7
203,754	115,57
204,133	115,3
204,511	115,7
204,89	116,52
205,269	116,9
205,647	117,71
206,026	117,7
206,404	116,51
206,782	115,07
207,161	114,33
207,539	114,08
207,918	112,97
208,296	111,95
208,674	111,14
209,052	110,78
209,431	110,79
209,809	111,48
210,187	112,17
210,565	112,85
210,943	112,45
211,321	112,35
211,699	112,78
212,077	113,2
212,455	113,31
212,833	112,76
213,211	112,34
213,589	112,14
213,967	113,26
214,345	114,21
214,722	115,01
215,1	115,4
215,478	115,87
215,855	117,26
216,233	117,8
216,611	117,42
216,988	117,03
217,366	115,96
217,743	114,43
218,121	113,16
218,498	111,72
218,876	110,86
219,253	110,26
219,631	108,6
220,008	106,93
220,385	105,71
220,762	105,44
221,14	105,47
221,517	105,56
221,894	104,97
222,271	104,98
222,648	105,17
223,025	105,28
223,402	105,17
223,78	104,2
224,157	102,65
224,533	101,86
224,91	101,79
225,287	102,17
225,664	103,1
226,041	104,16
226,418	105,55
226,795	106,36
227,171	106,63
227,548	107,62
227,925	108,76
228,301	109,76
228,678	109,93
229,055	110,04
229,431	110,45
229,808	110,54
230,184	110,63
230,561	111,77
230,937	113,1
231,313	113,87
231,69	114,88
232,066	117,56
232,442	119,77
232,819	121,04
233,195	122,05
233,571	123,34
233,947	124
234,323	125,04
234,699	126,62
235,075	129,29
235,451	132,75
235,827	136,08
236,203	139,89
236,579	145,06
236,955	149,9
237,331	154,59
237,707	161,01
238,083	169,3
238,459	179,17
238,834	194,17
239,21	215,32
239,586	240,26
239,961	261,94
240,337	281,4
240,713	296,39
241,088	312
241,464	325,41
241,839	342,6
242,215	373,21
242,59	459,16
242,965	809,19
243,341	-4306,99
243,716	-532,6
244,091	-304,65
244,467	-227,49
244,842	-186,37
245,217	-158,54
245,592	-144,76
245,967	-142,24
246,343	-137,79
246,718	-135,6
247,093	-139,75
247,468	-145,16
247,843	-145,14
248,218	-137,81
248,593	-125,41
248,967	-114,28
249,342	-107,8
249,717	-104,34
250,092	-101,83
250,467	-103,48
250,841	-112,41
251,216	-132,41
251,591	-164,02
251,965	-200,75
252,34	-237,33
252,714	-284,36
253,089	-345,29
253,463	-392,92
253,838	-395,11
254,212	-385,56
254,587	-351,33
254,961	-284,18
255,335	-222,18
255,71	-171,1
256,084	-124,66
256,458	-95,18
256,832	-79,08
257,206	-70,8
257,581	-66,45
257,955	-63,57
258,329	-60,65
258,703	-57,32
259,077	-54,67
259,451	-52,12
259,825	-51,01
260,199	-51,08
260,572	-50,43
260,946	-49,77
261,32	-49,21
261,694	-48,34
262,068	-47,84
262,441	-46,83
262,815	-46,42
263,189	-45,86
263,562	-46,34
263,936	-49,56
264,309	-55,51
264,683	-61,87
265,056	-65,43
265,43	-66,42
265,803	-66,05
266,176	-64,72
266,55	-63,58
266,923	-62,17
267,296	-60,34
267,67	-57,44
268,043	-54,54
268,416	-50,96
268,789	-47,38
269,162	-43,96
269,535	-41,39
269,908	-39,51
270,281	-38,71
270,654	-38,67
271,027	-39,26
271,4	-39,44
271,773	-39,3
272,146	-38,91
272,519	-38,32
272,891	-37,87
273,264	-37,57
273,637	-37,15
274,01	-36,84
274,382	-37,46
274,755	-37,78
275,127	-38,24
275,5	-38,72
275,872	-38,83
276,245	-39,2
276,617	-40,27
276,99	-41,52
277,362	-42,62
277,734	-42,9
278,107	-42,55
278,479	-41,83
278,851	-41,14
279,223	-40,78
279,596	-40,28
279,968	-39,85
280,34	-39,2
280,712	-38,54
281,084	-37,4
281,456	-36,18
281,828	-34,93
282,2	-32,72
282,572	-30,96
282,944	-29,54
283,315	-28,62
283,687	-28,02
284,059	-27,75
284,431	-27,41
284,802	-26,73
285,174	-26,19
285,546	-25,8
285,917	-25,37
286,289	-25,01
286,66	-24,62
287,032	-23,99
287,403	-23,61
287,775	-23,39
288,146	-23,45
288,518	-23,52
288,889	-23,58
289,26	-23,81
289,632	-24,33
290,003	-25,03
290,374	-25,42
290,745	-25,78
291,116	-25,89
291,487	-25,9
291,858	-25,65
292,229	-25,35
292,6	-24,99
292,971	-24,01
293,342	-22,9
293,713	-21,8
294,084	-20,87
294,455	-19,91
294,826	-19,41
295,196	-19,32
295,567	-19,6
295,938	-19,58
296,308	-19,28
296,679	-18,87
297,05	-18,25
297,42	-17,47
297,791	-16,83
298,161	-16,58
298,532	-16,09
298,902	-15,59
299,272	-15,15
299,643	-14,83
300,013	-14,3
300,383	-14,01
300,754	-14,18
301,124	-14,57
301,494	-15,04
301,864	-15,31
302,234	-15,69
302,604	-15,94
302,974	-15,9
303,344	-15,47
303,714	-15,04
304,084	-14,7
304,454	-14,57
304,824	-14,5
305,194	-14,42
305,563	-14,38
305,933	-14,24
306,303	-14,09
306,673	-13,69
307,042	-13,11
307,412	-12,49
307,781	-11,94
308,151	-11,52
308,521	-11,24
308,89	-10,83
309,259	-10,68
309,629	-10,65
309,998	-10,46
310,368	-10,24
310,737	-10,01
311,106	-9,84
311,475	-9,69
311,845	-9,68
312,214	-9,53
312,583	-9,43
312,952	-9,43
313,321	-9,34
313,69	-8,96
314,059	-8,77
314,428	-8,86
314,797	-9,07
315,166	-9,4
315,535	-9,82
315,904	-10,21
316,272	-10,42
316,641	-10,73
317,01	-10,61
317,379	-10,4
317,747	-10,11
318,116	-9,75
318,484	-9,45
318,853	-9,25
319,221	-9,17
319,59	-9,13
319,958	-9,03
320,327	-8,85
320,695	-8,66
321,063	-8,32
321,432	-8,14
321,8	-7,79
322,168	-7,53
322,536	-7,32
322,905	-6,77
323,273	-6,24
323,641	-5,77
324,009	-5,32
324,377	-4,98
324,745	-4,67
325,113	-4,3
325,481	-4,02
325,849	-3,95
326,216	-3,77
326,584	-3,47
326,952	-3,25
327,32	-2,92
327,687	-2,71
328,055	-2,44
328,423	-2,17
328,79	-2,03
329,158	-1,95
329,525	-1,95
329,893	-1,88
330,26	-1,68
330,628	-1,59
330,995	-1,42
331,362	-1,3
331,73	-1,19
332,097	-0,97
332,464	-0,74
332,831	-0,52
333,199	-0,41
333,566	-0,21
333,933	0,01
334,3	0,21
334,667	0,39
335,034	0,48
335,401	0,58
335,768	0,63
336,135	0,73
336,502	0,83
336,868	0,97
337,235	1,1
337,602	1,22
337,969	1,37
338,335	1,47
338,702	1,59
339,069	1,74
339,435	1,82
339,802	1,96
340,168	2
340,535	2,02
340,901	1,97
341,267	1,99
341,634	2,05
342	2,11
342,366	2,28
342,733	2,46
343,099	2,65
343,465	2,75
343,831	2,74
344,197	2,79
344,563	2,83
344,929	2,93
345,295	3,12
345,661	3,23
346,027	3,3
346,393	3,32
346,759	3,41
347,125	3,55
347,491	3,6
347,856	3,7
348,222	3,8
348,588	4,08
348,953	4,33
349,319	4,42
349,684	4,51
350,05	4,54
350,415	4,65
350,781	4,69
351,146	4,78
351,512	4,93
351,877	5,03
352,242	5,08
352,608	5,15
352,973	5,23
353,338	5,34
353,703	5,48
354,068	5,58
354,433	5,65
354,798	5,74
355,164	5,87
355,528	6
355,893	6,1
356,258	6,12
356,623	6,17
356,988	6,33
357,353	6,47
357,718	6,57
358,082	6,68
358,447	6,83
358,812	7,02
359,176	7,19
359,541	7,35
359,905	7,55
360,27	7,71
360,634	7,79
360,999	7,95
361,363	8,06
361,728	8,19
362,092	8,34
362,456	8,46
362,821	8,58
363,185	8,7
363,549	8,84
363,913	8,98
364,277	9,13
364,641	9,2
365,005	9,31
365,369	9,45
365,733	9,59
366,097	9,71
366,461	9,8
366,825	9,89
367,189	9,94
367,553	10,01
367,916	10,14
368,28	10,33
368,644	10,4
369,007	10,5
369,371	10,62
369,734	10,74
370,098	10,88
370,461	11
370,825	11,09
371,188	11,17
371,552	11,24
371,915	11,28
372,278	11,42
372,642	11,52
373,005	11,66
373,368	11,75
373,731	11,84
374,094	11,91
374,457	12,03
374,82	12,21
375,183	12,35
375,546	12,45
375,909	12,5
376,272	12,63
376,635	12,75
376,998	12,83
377,361	12,92
377,723	12,98
378,086	13,02
378,449	13,08
378,811	13,16
379,174	13,26
379,537	13,35
379,899	13,37
380,262	13,45
380,624	13,5
380,987	13,56
381,349	13,62
381,711	13,71
382,074	13,8
382,436	13,87
382,798	14
383,16	14,03
383,522	14,09
383,884	14,16
384,247	14,21
384,609	14,3
384,971	14,32
385,333	14,34
385,695	14,41
386,056	14,46
386,418	14,48
386,78	14,48
387,142	14,5
387,504	14,57
387,865	14,63
388,227	14,66
388,589	14,74
388,95	14,81
389,312	14,84
389,673	14,88
390,035	14,92
390,396	14,92
390,758	14,94
391,119	15,01
391,48	15,03
391,842	15,07
392,203	15,08
392,564	15,14
392,925	15,21
393,286	15,25
393,648	15,29
394,009	15,35
394,37	15,41
394,731	15,51
395,092	15,51
395,452	15,55
395,813	15,57
396,174	15,58
396,535	15,56
396,896	15,54
397,257	15,56
397,617	15,59
397,978	15,62
398,338	15,68
398,699	15,71
399,06	15,8
399,42	15,8
399,781	15,84
400,141	15,85
400,501	15,84
400,862	15,85
401,222	15,87
401,582	15,9
401,943	15,96
402,303	15,98
402,663	15,99
403,023	15,99
403,383	16,04
403,743	16,05
404,103	16,09
404,463	16,18
404,823	16,2
405,183	16,21
405,543	16,25
405,903	16,26
406,262	16,29
406,622	16,25
406,982	16,26
407,342	16,31
407,701	16,34
408,061	16,37
408,42	16,41
408,78	16,45
409,139	16,45
409,499	16,41
409,858	16,42
410,217	16,46
410,577	16,49
410,936	16,48
411,295	16,49
411,655	16,48
412,014	16,46
412,373	16,46
412,732	16,46
413,091	16,46
413,45	16,44
413,809	16,4
414,168	16,37
414,527	16,35
414,886	16,32
415,245	16,31
415,603	16,29
415,962	16,27
416,321	16,26
416,679	16,26
417,038	16,24
417,397	16,25
417,755	16,26
418,114	16,22
418,472	16,22
418,831	16,2
419,189	16,2
419,547	16,2
419,906	16,18
420,264	16,17
420,622	16,15
420,981	16,14
421,339	16,11
421,697	16,12
422,055	16,13
422,413	16,14
422,771	16,16
423,129	16,18
423,487	16,2
423,845	16,2
424,203	16,22
424,56	16,26
424,918	16,26
425,276	16,26
425,634	16,31
425,991	16,32
426,349	16,37
426,707	16,41
427,064	16,46
427,422	16,51
427,779	16,57
428,137	16,64
428,494	16,71
428,851	16,79
429,209	16,82
429,566	16,85
429,923	16,87
430,28	16,87
430,637	16,88
430,995	16,88
431,352	16,89
431,709	16,88
432,066	16,88
432,423	16,9
432,78	16,9
433,137	16,92
433,493	16,92
433,85	16,97
434,207	16,93
434,564	16,92
434,92	16,93
435,277	16,92
435,634	16,91
435,99	16,89
436,347	16,88
436,703	16,9
437,06	16,9
437,416	16,88
437,773	16,86
438,129	16,85
438,485	16,87
438,841	16,85
439,198	16,86
439,554	16,84
439,91	16,85
440,266	16,85
440,622	16,85
440,978	16,87
441,334	16,82
441,69	16,83
442,046	16,8
442,402	16,78
442,758	16,76
443,113	16,76
443,469	16,76
443,825	16,77
444,181	16,76
444,536	16,75
444,892	16,75
445,247	16,79
445,603	16,78
445,958	16,79
446,314	16,8
446,669	16,81
447,025	16,82
447,38	16,81
447,735	16,81
448,09	16,81
448,446	16,81
448,801	16,82
449,156	16,83
449,511	16,87
449,866	16,92
450,221	16,96
450,576	17
450,931	17,04
451,286	17,05
451,641	17,09
451,995	17,15
452,35	17,2
452,705	17,19
453,06	17,24
453,414	17,27
453,769	17,3
454,123	17,3
454,478	17,33
454,832	17,33
455,187	17,35
455,541	17,36
455,896	17,36
456,25	17,35
456,604	17,31
456,958	17,31
457,313	17,27
457,667	17,27
458,021	17,24
458,375	17,25
458,729	17,26
459,083	17,29
459,437	17,28
459,791	17,28
460,145	17,28
460,499	17,28
460,852	17,26
461,206	17,27
461,56	17,26
461,914	17,28
462,267	17,33
462,621	17,33
462,974	17,34
463,328	17,36
463,681	17,39
464,035	17,44
464,388	17,45
464,742	17,49
465,095	17,49
465,448	17,51
465,801	17,5
466,155	17,51
466,508	17,48
466,861	17,46
467,214	17,46
467,567	17,45
467,92	17,45
468,273	17,47
468,626	17,44
468,979	17,46
469,332	17,42
469,684	17,38
470,037	17,39
470,39	17,41
470,743	17,41
471,095	17,41
471,448	17,41
471,8	17,43
472,153	17,45
472,505	17,46
472,858	17,47
473,21	17,49
473,562	17,48
473,915	17,47
474,267	17,49
474,619	17,51
474,971	17,52
475,324	17,52
475,676	17,53
476,028	17,54
476,38	17,53
476,732	17,54
477,084	17,55
477,436	17,56
477,787	17,58
478,139	17,54
478,491	17,54
478,843	17,52
479,195	17,51
479,546	17,46
479,898	17,45
480,249	17,43
480,601	17,46
480,952	17,46
481,304	17,45
481,655	17,45
482,007	17,43
482,358	17,41
482,709	17,41
483,061	17,39
483,412	17,38
483,763	17,38
484,114	17,38
484,465	17,38
484,816	17,36
485,167	17,35
485,518	17,35
485,869	17,35
486,22	17,35
486,571	17,35
486,922	17,37
487,272	17,37
487,623	17,37
487,974	17,35
488,324	17,35
488,675	17,35
489,025	17,36
489,376	17,37
489,726	17,39
490,077	17,4
490,427	17,41
490,778	17,42
491,128	17,44
491,478	17,44
491,828	17,45
492,179	17,49
492,529	17,5
492,879	17,52
493,229	17,54
493,579	17,56
493,929	17,57
494,279	17,59
494,629	17,6
494,979	17,61
495,328	17,62
495,678	17,64
496,028	17,65
496,378	17,65
496,727	17,68
497,077	17,69
497,426	17,71
497,776	17,72
498,125	17,72
498,475	17,71
498,824	17,72
499,174	17,72
499,523	17,73
499,872	17,74
500,221	17,74
500,571	17,75
500,92	17,76
501,269	17,77
501,618	17,78
501,967	17,79
502,316	17,79
502,665	17,81
503,014	17,81
503,363	17,82
503,711	17,83
504,06	17,84
504,409	17,85
504,758	17,84
505,106	17,86
505,455	17,86
505,803	17,86
506,152	17,87
506,5	17,86
506,849	17,87
507,197	17,86
507,546	17,86
507,894	17,86
508,242	17,86
508,59	17,84
508,939	17,83
509,287	17,82
509,635	17,84
509,983	17,85
510,331	17,87
510,679	17,86
511,027	17,86
511,375	17,86
511,723	17,86
512,07	17,87
512,418	17,87
512,766	17,89
513,114	17,91
513,461	17,91
513,809	17,93
514,156	17,9
514,504	17,91
514,851	17,9
515,199	17,88
515,546	17,88
515,893	17,88
516,241	17,89
516,588	17,89
516,935	17,89
517,282	17,89
517,63	17,88
517,977	17,89
518,324	17,91
518,671	17,92
519,018	17,93
519,365	17,95
519,711	17,96
520,058	17,96
520,405	17,96
520,752	17,97
521,099	17,97
521,445	18
521,792	18
522,138	18,02
522,485	18,04
522,832	18,06
523,178	18,06
523,524	18,08
523,871	18,1
524,217	18,08
524,563	18,08
524,91	18,06
525,256	18,04
525,602	18
525,948	17,99
526,294	17,98
526,64	17,95
526,986	17,94
527,332	17,94
527,678	17,93
528,024	17,93
528,37	17,94
528,716	17,94
529,061	17,93
529,407	17,93
529,753	17,92
530,098	17,92
530,444	17,93
530,789	17,92
531,135	17,91
531,48	17,92
531,826	17,92
532,171	17,93
532,516	17,93
532,862	17,94
533,207	17,93
533,552	17,93
533,897	17,95
534,242	17,95
534,587	17,96
534,932	17,96
535,277	17,97
535,622	17,96
535,967	17,97
536,312	18
536,657	18,01
537,001	18,02
537,346	18,01
537,691	18
538,035	18
538,38	18,02
538,724	18,03
539,069	18,03
539,413	18,03
539,758	18,03
540,102	18,04
540,446	18,03
540,791	18,04
541,135	18,04
541,479	18,04
541,823	18,04
542,167	18,04
542,512	18,05
542,856	18,04
543,2	18,03
543,543	18,02
543,887	18,02
544,231	18,03
544,575	18,05
544,919	18,05
545,262	18,05
545,606	18,05
545,95	18,04
546,293	18,04
546,637	18,04
546,98	18,06
547,324	18,06
547,667	18,1
548,011	18,12
548,354	18,14
548,697	18,15
549,04	18,13
549,384	18,16
549,727	18,12
550,07	18,14
550,413	18,12
550,756	18,1
551,099	18,09
551,442	18,07
551,785	18,07
552,128	18,08
552,47	18,09
552,813	18,06
553,156	18,1
553,499	18,1
553,841	18,09
554,184	18,08
554,526	18,06
554,869	18
555,211	17,98
555,554	17,95
555,896	17,95
556,238	17,91
556,581	17,85
556,923	17,84
557,265	17,84
557,607	17,82
557,949	17,82
558,291	17,82
558,633	17,81
558,975	17,78
559,317	17,74
559,659	17,7
560,001	17,68
560,343	17,61
560,685	17,58
561,026	17,55
561,368	17,52
561,71	17,52
562,051	17,51
562,393	17,52
562,734	17,52
563,076	17,51
563,417	17,53
563,759	17,55
564,1	17,54
564,441	17,49
564,782	17,5
565,124	17,43
565,465	17,41
565,806	17,39
566,147	17,38
566,488	17,38
566,829	17,38
567,17	17,39
567,511	17,38
567,851	17,37
568,192	17,35
568,533	17,32
568,874	17,32
569,214	17,34
569,555	17,29
569,895	17,26
570,236	17,22
570,576	17,19
570,917	17,17
571,257	17,13
571,598	17,14
571,938	17,15
572,278	17,17
572,618	17,16
572,959	17,14
573,299	17,12
573,639	17,14
573,979	17,13
574,319	17,1
574,659	17,1
574,999	17,06
575,339	17,07
575,678	17,07
576,018	17,03
576,358	16,98
576,698	16,94
577,037	16,93
577,377	16,92
577,716	16,89
578,056	16,87
578,395	16,86
578,735	16,83
579,074	16,75
579,413	16,75
579,753	16,71
580,092	16,68
580,431	16,65
580,77	16,61
581,109	16,56
581,448	16,53
581,787	16,47
582,126	16,51
582,465	16,49
582,804	16,47
583,143	16,47
583,482	16,46
583,82	16,49
584,159	16,48
584,498	16,48
584,836	16,5
585,175	16,47
585,514	16,45
585,852	16,47
586,19	16,51
586,529	16,5
586,867	16,51
587,205	16,5
587,544	16,48
587,882	16,46
588,22	16,47
588,558	16,48
588,896	16,5
589,234	16,45
589,572	16,47
589,91	16,47
590,248	16,42
590,586	16,43
590,924	16,41
591,262	16,41
591,599	16,4
591,937	16,37
592,275	16,4
592,612	16,44
592,95	16,43
593,287	16,44
593,625	16,44
593,962	16,41
594,299	16,45
594,637	16,49
594,974	16,52
595,311	16,52
595,648	16,52
595,985	16,52
596,322	16,53
596,659	16,54
596,996	16,55
597,333	16,56
597,67	16,54
598,007	16,55
598,344	16,54
598,681	16,57
599,017	16,55
599,354	16,52
599,691	16,5
600,027	16,5
600,364	16,47
600,7	16,49
601,037	16,51
601,373	16,52
601,71	16,53
602,046	16,52
602,382	16,52
602,718	16,52
603,054	16,52
603,391	16,54
603,727	16,51
604,063	16,53
604,399	16,55
604,735	16,54
605,071	16,54
605,406	16,54
605,742	16,55
606,078	16,61
606,414	16,62
606,749	16,66
607,085	16,67
607,421	16,69
607,756	16,67
608,092	16,67
608,427	16,64
608,762	16,6
609,098	16,58
609,433	16,56
609,768	16,56
610,104	16,52
610,439	16,5
610,774	16,5
611,109	16,46
611,444	16,45
611,779	16,44
612,114	16,44
612,449	16,4
612,784	16,37
613,118	16,31
613,453	16,28
613,788	16,21
614,123	16,14
614,457	16,08
614,792	16,05
615,126	16,05
615,461	16,01
615,795	16,02
616,13	16,01
616,464	15,99
616,798	15,95
617,132	15,92
617,467	15,93
617,801	15,92
618,135	15,92
618,469	15,93
618,803	15,95
619,137	15,93
619,471	15,96
619,805	15,94
620,139	15,94
620,472	15,95
620,806	15,95
621,14	15,93
621,473	15,91
621,807	15,86
622,141	15,81
622,474	15,79
622,808	15,8
623,141	15,82
623,474	15,87
623,808	15,92
624,141	16
624,474	16,02
624,807	16,03
625,141	16,02
625,474	16,04
625,807	16,06
626,14	16,07
626,473	16,08
626,806	16,1
627,138	16,11
627,471	16,09
627,804	16,06
628,137	16,09
628,469	16,12
628,802	16,16
629,135	16,19
629,467	16,2
629,8	16,2
630,132	16,16
630,465	16,12
630,797	16,09
631,129	16,04
631,461	16,01
631,794	16,02
632,126	15,98
632,458	15,96
632,79	15,94
633,122	15,95
633,454	15,94
633,786	15,89
634,118	15,88
634,45	15,87
634,781	15,89
635,113	15,88
635,445	15,86
635,777	15,89
636,108	15,88
636,44	15,91
636,771	15,89
637,103	15,88
637,434	15,89
637,765	15,87
638,097	15,88
638,428	15,87
638,759	15,84
639,09	15,86
639,422	15,82
639,753	15,8
640,084	15,78
640,415	15,77
640,746	15,8
641,077	15,78
641,407	15,8
641,738	15,83
642,069	15,83
642,4	15,83
642,73	15,8
643,061	15,79
643,392	15,8
643,722	15,79
644,053	15,84
644,383	15,85
644,713	15,87
645,044	15,85
645,374	15,82
645,704	15,8
