Data from zc74042_1_Reflection_00001.txt Node
Date: Thu Mar 12 14:48:28 ART 2020
User: Ana
Spectrometer: USB2E3644
Trigger mode: 4
Integration Time (sec): 5,000000E-2
Scans to average: 10
Electric dark correction enabled: true
Nonlinearity correction enabled: false
Boxcar width: 10
XAxis mode: Wavelengths
Number of Pixels in Spectrum: 2048
>>>>>Begin Spectral Data<<<<<
178,315	98,95
178,696	95,89
179,076	92,77
179,457	85,04
179,838	62,12
180,218	55,38
180,599	57,69
180,979	82,14
181,36	3,49
181,74	18,07
182,121	32,29
182,501	72,37
182,881	71,75
183,262	72,07
183,642	76,51
184,022	82,22
184,402	86,09
184,783	86,93
185,163	86,56
185,543	85,47
185,923	86,19
186,303	87,4
186,683	86,18
187,063	83,84
187,443	81,5
187,823	79,18
188,203	81,29
188,583	84,11
188,963	88,37
189,343	93,09
189,723	96,44
190,102	100,9
190,482	107,14
190,862	112,98
191,242	115,88
191,621	114,19
192,001	113,05
192,38	110,87
192,76	111,68
193,14	113,64
193,519	113,09
193,898	112,58
194,278	113,11
194,657	113,95
195,037	115,68
195,416	118,33
195,795	118,89
196,175	118,01
196,554	116,89
196,933	114,55
197,312	113,23
197,692	111,51
198,071	108,86
198,45	105,48
198,829	103,14
199,208	101,42
199,587	101,65
199,966	100,73
200,345	99,72
200,724	98,96
201,103	98,22
201,482	99,41
201,86	101,11
202,239	102,16
202,618	102,8
202,997	103,02
203,375	101,54
203,754	100,9
204,133	100,58
204,511	99,74
204,89	98,4
205,269	98,31
205,647	99,95
206,026	101,19
206,404	101,42
206,782	101,1
207,161	101,31
207,539	101,31
207,918	102,7
208,296	103,24
208,674	103,65
209,052	103,74
209,431	102,71
209,809	101,12
210,187	99,32
210,565	98,27
210,943	97,64
211,321	98,99
211,699	100,49
212,077	101,25
212,455	103,36
212,833	104,81
213,211	104,87
213,589	104,02
213,967	103,6
214,345	103,1
214,722	102,16
215,1	102,78
215,478	102,43
215,855	100,3
216,233	99,94
216,611	100,69
216,988	102,27
217,366	103,85
217,743	104,26
218,121	104,62
218,498	104,71
218,876	105,72
219,253	105,41
219,631	105,18
220,008	105,5
220,385	104,42
220,762	104,18
221,14	106,36
221,517	106,69
221,894	106,66
222,271	110,22
222,648	114,92
223,025	116,37
223,402	117,66
223,78	120,48
224,157	122,98
224,533	122,87
224,91	123,09
225,287	124,29
225,664	127,71
226,041	132,37
226,418	136,93
226,795	137,12
227,171	137,87
227,548	140,02
227,925	141,85
228,301	143,83
228,678	145,73
229,055	143,88
229,431	144,51
229,808	148,19
230,184	148,63
230,561	147,39
230,937	147,92
231,313	151,14
231,69	154,73
232,066	155,07
232,442	157,65
232,819	161,49
233,195	161,87
233,571	163,32
233,947	165,3
234,323	165,42
234,699	169,32
235,075	172,15
235,451	172,98
235,827	172,19
236,203	172,5
236,579	176,96
236,955	187,55
237,331	199,67
237,707	211,7
238,083	236,45
238,459	286,22
238,834	367,65
239,21	518,16
239,586	813,84
239,961	1637,27
240,337	4958,33
240,713	-9827,78
241,088	-2739,06
241,464	-1985,23
241,839	-1475,42
242,215	-882,32
242,59	-517,84
242,965	-287,58
243,341	-172,37
243,716	-119,54
244,091	-97,25
244,467	-84,59
244,842	-76,32
245,217	-69,77
245,592	-66,61
245,967	-67,06
246,343	-66,94
246,718	-67,58
247,093	-70,61
247,468	-72,34
247,843	-72,43
248,218	-70,44
248,593	-66,34
248,967	-61,78
249,342	-59,34
249,717	-58,11
250,092	-57,85
250,467	-58,82
250,841	-63,26
251,216	-71,92
251,591	-85,43
251,965	-97,2
252,34	-106,59
252,714	-117,24
253,089	-126,02
253,463	-133,18
253,838	-131,25
254,212	-125,39
254,587	-116,83
254,961	-101,34
255,335	-87,16
255,71	-73,37
256,084	-58,1
256,458	-46,9
256,832	-40,34
257,206	-36,81
257,581	-35,12
257,955	-33,56
258,329	-32,27
258,703	-30,64
259,077	-29,69
259,451	-28,73
259,825	-28,38
260,199	-28,26
260,572	-27,68
260,946	-27,43
261,32	-26,87
261,694	-26,26
262,068	-25,95
262,441	-25,65
262,815	-25,74
263,189	-25,49
263,562	-25,52
263,936	-27,01
264,309	-29,67
264,683	-32,29
265,056	-33,2
265,43	-33,06
265,803	-32,83
266,176	-32,12
266,55	-31,6
266,923	-30,92
267,296	-29,84
267,67	-28,27
268,043	-27,19
268,416	-25,55
268,789	-24,02
269,162	-22,83
269,535	-21,51
269,908	-20,49
270,281	-19,83
270,654	-19,65
271,027	-20,12
271,4	-20,43
271,773	-20,43
272,146	-20,52
272,519	-20,58
272,891	-20,71
273,264	-20,85
273,637	-20,85
274,01	-20,85
274,382	-21,25
274,755	-21,54
275,127	-21,88
275,5	-22,14
275,872	-22,19
276,245	-22,35
276,617	-22,6
276,99	-22,45
277,362	-22,84
277,734	-23,03
278,107	-23,04
278,479	-22,95
278,851	-22,47
279,223	-22,05
279,596	-21,79
279,968	-21,67
280,34	-21,32
280,712	-20,83
281,084	-20,07
281,456	-19,23
281,828	-18,24
282,2	-16,93
282,572	-15,79
282,944	-15,03
283,315	-14,63
283,687	-14,21
284,059	-14,09
284,431	-14
284,802	-13,9
285,174	-13,71
285,546	-13,47
285,917	-13,09
286,289	-12,76
286,66	-12,63
287,032	-12,46
287,403	-12,4
287,775	-12,34
288,146	-12,38
288,518	-12,44
288,889	-12,26
289,26	-12,13
289,632	-12,37
290,003	-12,93
290,374	-13,24
290,745	-13,33
291,116	-13,39
291,487	-13,44
291,858	-13,44
292,229	-13,38
292,6	-13,19
292,971	-12,54
293,342	-11,87
293,713	-11,44
294,084	-11,03
294,455	-10,44
294,826	-10,12
295,196	-9,97
295,567	-9,93
295,938	-9,74
296,308	-9,65
296,679	-9,75
297,05	-9,83
297,42	-9,71
297,791	-9,3
298,161	-9,17
298,532	-9,02
298,902	-8,8
299,272	-8,72
299,643	-8,65
300,013	-8,32
300,383	-8,14
300,754	-8,34
301,124	-8,64
301,494	-8,84
301,864	-9,05
302,234	-9,31
302,604	-9,36
302,974	-9,32
303,344	-9,15
303,714	-9,03
304,084	-8,67
304,454	-8,44
304,824	-8,31
305,194	-8,24
305,563	-8,23
305,933	-8
306,303	-7,62
306,673	-7,2
307,042	-6,76
307,412	-6,29
307,781	-6,05
308,151	-5,88
308,521	-5,7
308,89	-5,39
309,259	-5,26
309,629	-5,16
309,998	-5
310,368	-4,9
310,737	-4,81
311,106	-4,68
311,475	-4,49
311,845	-4,56
312,214	-4,59
312,583	-4,58
312,952	-4,57
313,321	-4,54
313,69	-4,41
314,059	-4,46
314,428	-4,6
314,797	-4,67
315,166	-4,87
315,535	-5,08
315,904	-5,29
316,272	-5,44
316,641	-5,71
317,01	-5,77
317,379	-5,71
317,747	-5,69
318,116	-5,62
318,484	-5,5
318,853	-5,44
319,221	-5,44
319,59	-5,39
319,958	-5,23
320,327	-5,1
320,695	-5,1
321,063	-5,02
321,432	-4,95
321,8	-4,7
322,168	-4,48
322,536	-4,49
322,905	-4,31
323,273	-4,09
323,641	-3,94
324,009	-3,93
324,377	-3,92
324,745	-3,82
325,113	-3,63
325,481	-3,45
325,849	-3,34
326,216	-3,22
326,584	-3,04
326,952	-2,88
327,32	-2,63
327,687	-2,48
328,055	-2,28
328,423	-2,09
328,79	-2,05
329,158	-2,11
329,525	-2,24
329,893	-2,28
330,26	-2,2
330,628	-2,1
330,995	-1,95
331,362	-1,86
331,73	-1,74
332,097	-1,5
332,464	-1,23
332,831	-1,02
333,199	-0,84
333,566	-0,64
333,933	-0,46
334,3	-0,4
334,667	-0,45
335,034	-0,54
335,401	-0,56
335,768	-0,53
336,135	-0,49
336,502	-0,48
336,868	-0,39
337,235	-0,31
337,602	-0,22
337,969	-0,07
338,335	-0,02
338,702	0,06
339,069	0,16
339,435	0,23
339,802	0,29
340,168	0,26
340,535	0,22
340,901	0,11
341,267	-0,01
341,634	-0,05
342	-0,02
342,366	0,06
342,733	0,12
343,099	0,23
343,465	0,28
343,831	0,34
344,197	0,47
344,563	0,52
344,929	0,6
345,295	0,74
345,661	0,85
346,027	1,01
346,393	1,02
346,759	1,03
347,125	1,07
347,491	1,06
347,856	1,06
348,222	1,05
348,588	1,19
348,953	1,3
349,319	1,31
349,684	1,41
350,05	1,56
350,415	1,73
350,781	1,83
351,146	1,92
351,512	2,01
351,877	2,01
352,242	2,04
352,608	2,1
352,973	2,09
353,338	2,08
353,703	2,09
354,068	2,15
354,433	2,29
354,798	2,42
355,164	2,56
355,528	2,69
355,893	2,75
356,258	2,76
356,623	2,87
356,988	3,04
357,353	3,09
357,718	3,1
358,082	3,07
358,447	3,07
358,812	3,13
359,176	3,18
359,541	3,27
359,905	3,34
360,27	3,37
360,634	3,37
360,999	3,42
361,363	3,45
361,728	3,47
362,092	3,48
362,456	3,51
362,821	3,54
363,185	3,6
363,549	3,68
363,913	3,71
364,277	3,66
364,641	3,6
365,005	3,62
365,369	3,64
365,733	3,73
366,097	3,83
366,461	3,88
366,825	3,93
367,189	4
367,553	4,07
367,916	4,15
368,28	4,22
368,644	4,26
369,007	4,3
369,371	4,36
369,734	4,41
370,098	4,46
370,461	4,52
370,825	4,51
371,188	4,53
371,552	4,61
371,915	4,69
372,278	4,83
372,642	4,95
373,005	5,03
373,368	5,16
373,731	5,24
374,094	5,34
374,457	5,43
374,82	5,5
375,183	5,58
375,546	5,64
375,909	5,71
376,272	5,8
376,635	5,91
376,998	5,97
377,361	6,03
377,723	6,1
378,086	6,16
378,449	6,27
378,811	6,35
379,174	6,41
379,537	6,5
379,899	6,53
380,262	6,55
380,624	6,6
380,987	6,6
381,349	6,62
381,711	6,64
382,074	6,71
382,436	6,79
382,798	6,89
383,16	6,94
383,522	7
383,884	7,04
384,247	7,06
384,609	7,12
384,971	7,17
385,333	7,19
385,695	7,21
386,056	7,21
386,418	7,19
386,78	7,2
387,142	7,18
387,504	7,19
387,865	7,23
388,227	7,24
388,589	7,25
388,95	7,28
389,312	7,26
389,673	7,26
390,035	7,26
390,396	7,25
390,758	7,27
391,119	7,28
391,48	7,3
391,842	7,31
392,203	7,31
392,564	7,31
392,925	7,37
393,286	7,38
393,648	7,4
394,009	7,46
394,37	7,48
394,731	7,51
395,092	7,52
395,452	7,53
395,813	7,57
396,174	7,6
396,535	7,6
396,896	7,62
397,257	7,65
397,617	7,69
397,978	7,72
398,338	7,74
398,699	7,79
399,06	7,85
399,42	7,87
399,781	7,88
400,141	7,9
400,501	7,87
400,862	7,9
401,222	7,9
401,582	7,89
401,943	7,91
402,303	7,93
402,663	7,97
403,023	7,96
403,383	7,98
403,743	8
404,103	8,02
404,463	8,05
404,823	8,09
405,183	8,1
405,543	8,1
405,903	8,1
406,262	8,08
406,622	8,04
406,982	8,06
407,342	8,07
407,701	8,07
408,061	8,09
408,42	8,11
408,78	8,15
409,139	8,16
409,499	8,16
409,858	8,16
410,217	8,18
410,577	8,19
410,936	8,15
411,295	8,15
411,655	8,11
412,014	8,07
412,373	8,02
412,732	7,96
413,091	7,94
413,45	7,89
413,809	7,86
414,168	7,8
414,527	7,74
414,886	7,67
415,245	7,64
415,603	7,58
415,962	7,51
416,321	7,45
416,679	7,42
417,038	7,36
417,397	7,31
417,755	7,26
418,114	7,23
418,472	7,21
418,831	7,19
419,189	7,18
419,547	7,17
419,906	7,15
420,264	7,13
420,622	7,11
420,981	7,11
421,339	7,1
421,697	7,11
422,055	7,12
422,413	7,14
422,771	7,16
423,129	7,19
423,487	7,23
423,845	7,25
424,203	7,27
424,56	7,31
424,918	7,35
425,276	7,39
425,634	7,42
425,991	7,46
426,349	7,49
426,707	7,52
427,064	7,57
427,422	7,61
427,779	7,66
428,137	7,72
428,494	7,77
428,851	7,8
429,209	7,83
429,566	7,84
429,923	7,85
430,28	7,84
430,637	7,85
430,995	7,83
431,352	7,82
431,709	7,82
432,066	7,81
432,423	7,83
432,78	7,84
433,137	7,85
433,493	7,84
433,85	7,85
434,207	7,83
434,564	7,8
434,92	7,77
435,277	7,75
435,634	7,75
435,99	7,73
436,347	7,71
436,703	7,71
437,06	7,7
437,416	7,7
437,773	7,68
438,129	7,66
438,485	7,68
438,841	7,67
439,198	7,67
439,554	7,66
439,91	7,67
440,266	7,67
440,622	7,67
440,978	7,67
441,334	7,64
441,69	7,64
442,046	7,63
442,402	7,64
442,758	7,64
443,113	7,62
443,469	7,62
443,825	7,62
444,181	7,62
444,536	7,64
444,892	7,64
445,247	7,66
445,603	7,68
445,958	7,67
446,314	7,68
446,669	7,69
447,025	7,71
447,38	7,7
447,735	7,71
448,09	7,72
448,446	7,73
448,801	7,75
449,156	7,76
449,511	7,8
449,866	7,83
450,221	7,86
450,576	7,88
450,931	7,93
451,286	7,96
451,641	8,01
451,995	8,04
452,35	8,09
452,705	8,12
453,06	8,13
453,414	8,15
453,769	8,15
454,123	8,16
454,478	8,16
454,832	8,17
455,187	8,13
455,541	8,12
455,896	8,08
456,25	8,06
456,604	8,05
456,958	8,03
457,313	8
457,667	7,99
458,021	8
458,375	7,99
458,729	8
459,083	8
459,437	8
459,791	7,98
460,145	7,98
460,499	7,97
460,852	7,97
461,206	8
461,56	8
461,914	8,01
462,267	8
462,621	8,03
462,974	8,05
463,328	8,06
463,681	8,08
464,035	8,11
464,388	8,12
464,742	8,15
465,095	8,17
465,448	8,18
465,801	8,19
466,155	8,19
466,508	8,18
466,861	8,17
467,214	8,16
467,567	8,18
467,92	8,18
468,273	8,18
468,626	8,15
468,979	8,14
469,332	8,13
469,684	8,14
470,037	8,16
470,39	8,16
470,743	8,19
471,095	8,19
471,448	8,21
471,8	8,22
472,153	8,25
472,505	8,25
472,858	8,24
473,21	8,24
473,562	8,24
473,915	8,26
474,267	8,25
474,619	8,26
474,971	8,25
475,324	8,25
475,676	8,24
476,028	8,26
476,38	8,26
476,732	8,26
477,084	8,25
477,436	8,22
477,787	8,21
478,139	8,19
478,491	8,19
478,843	8,17
479,195	8,17
479,546	8,12
479,898	8,05
480,249	8
480,601	7,96
480,952	7,93
481,304	7,91
481,655	7,91
482,007	7,89
482,358	7,88
482,709	7,87
483,061	7,86
483,412	7,85
483,763	7,85
484,114	7,85
484,465	7,83
484,816	7,82
485,167	7,81
485,518	7,8
485,869	7,8
486,22	7,8
486,571	7,8
486,922	7,81
487,272	7,82
487,623	7,84
487,974	7,85
488,324	7,85
488,675	7,85
489,025	7,85
489,376	7,85
489,726	7,86
490,077	7,87
490,427	7,88
490,778	7,89
491,128	7,9
491,478	7,92
491,828	7,96
492,179	7,98
492,529	8,02
492,879	8,05
493,229	8,08
493,579	8,09
493,929	8,11
494,279	8,12
494,629	8,12
494,979	8,15
495,328	8,19
495,678	8,22
496,028	8,26
496,378	8,28
496,727	8,31
497,077	8,34
497,426	8,36
497,776	8,36
498,125	8,38
498,475	8,38
498,824	8,39
499,174	8,38
499,523	8,38
499,872	8,38
500,221	8,4
500,571	8,41
500,92	8,4
501,269	8,4
501,618	8,41
501,967	8,45
502,316	8,47
502,665	8,48
503,014	8,49
503,363	8,5
503,711	8,51
504,06	8,51
504,409	8,5
504,758	8,49
505,106	8,5
505,455	8,48
505,803	8,48
506,152	8,45
506,5	8,45
506,849	8,46
507,197	8,45
507,546	8,45
507,894	8,45
508,242	8,47
508,59	8,45
508,939	8,43
509,287	8,42
509,635	8,41
509,983	8,43
510,331	8,44
510,679	8,44
511,027	8,44
511,375	8,46
511,723	8,48
512,07	8,49
512,418	8,51
512,766	8,53
513,114	8,54
513,461	8,57
513,809	8,59
514,156	8,58
514,504	8,59
514,851	8,56
515,199	8,54
515,546	8,52
515,893	8,54
516,241	8,56
516,588	8,57
516,935	8,59
517,282	8,58
517,63	8,59
517,977	8,6
518,324	8,61
518,671	8,63
519,018	8,62
519,365	8,61
519,711	8,61
520,058	8,63
520,405	8,64
520,752	8,63
521,099	8,64
521,445	8,66
521,792	8,65
522,138	8,68
522,485	8,69
522,832	8,69
523,178	8,68
523,524	8,68
523,871	8,69
524,217	8,67
524,563	8,65
524,91	8,61
525,256	8,57
525,602	8,56
525,948	8,54
526,294	8,52
526,64	8,5
526,986	8,48
527,332	8,46
527,678	8,45
528,024	8,45
528,37	8,45
528,716	8,46
529,061	8,46
529,407	8,45
529,753	8,45
530,098	8,44
530,444	8,45
530,789	8,44
531,135	8,44
531,48	8,45
531,826	8,45
532,171	8,47
532,516	8,48
532,862	8,49
533,207	8,5
533,552	8,51
533,897	8,54
534,242	8,55
534,587	8,57
534,932	8,6
535,277	8,61
535,622	8,61
535,967	8,62
536,312	8,63
536,657	8,66
537,001	8,68
537,346	8,71
537,691	8,71
538,035	8,71
538,38	8,71
538,724	8,68
539,069	8,68
539,413	8,69
539,758	8,68
540,102	8,68
540,446	8,68
540,791	8,67
541,135	8,68
541,479	8,69
541,823	8,69
542,167	8,68
542,512	8,68
542,856	8,68
543,2	8,67
543,543	8,68
543,887	8,66
544,231	8,68
544,575	8,68
544,919	8,69
545,262	8,73
545,606	8,75
545,95	8,78
546,293	8,81
546,637	8,8
546,98	8,84
547,324	8,84
547,667	8,88
548,011	8,89
548,354	8,89
548,697	8,9
549,04	8,9
549,384	8,9
549,727	8,88
550,07	8,87
550,413	8,87
550,756	8,87
551,099	8,89
551,442	8,87
551,785	8,9
552,128	8,9
552,47	8,88
552,813	8,86
553,156	8,85
553,499	8,84
553,841	8,84
554,184	8,83
554,526	8,81
554,869	8,79
555,211	8,82
555,554	8,82
555,896	8,79
556,238	8,78
556,581	8,75
556,923	8,76
557,265	8,76
557,607	8,76
557,949	8,76
558,291	8,76
558,633	8,75
558,975	8,71
559,317	8,69
559,659	8,66
560,001	8,63
560,343	8,62
560,685	8,59
561,026	8,58
561,368	8,58
561,71	8,56
562,051	8,52
562,393	8,51
562,734	8,47
563,076	8,47
563,417	8,47
563,759	8,46
564,1	8,45
564,441	8,44
564,782	8,38
565,124	8,35
565,465	8,34
565,806	8,33
566,147	8,29
566,488	8,28
566,829	8,29
567,17	8,28
567,511	8,27
567,851	8,28
568,192	8,27
568,533	8,22
568,874	8,21
569,214	8,22
569,555	8,18
569,895	8,17
570,236	8,17
570,576	8,14
570,917	8,14
571,257	8,11
571,598	8,1
571,938	8,12
572,278	8,13
572,618	8,12
572,959	8,12
573,299	8,13
573,639	8,11
573,979	8,09
574,319	8,08
574,659	8,07
574,999	8,06
575,339	8,04
575,678	8,07
576,018	8,08
576,358	8,04
576,698	8,04
577,037	8,02
577,377	7,99
577,716	7,97
578,056	7,95
578,395	7,95
578,735	7,93
579,074	7,91
579,413	7,89
579,753	7,88
580,092	7,84
580,431	7,82
580,77	7,82
581,109	7,82
581,448	7,79
581,787	7,77
582,126	7,75
582,465	7,75
582,804	7,71
583,143	7,7
583,482	7,73
583,82	7,73
584,159	7,74
584,498	7,74
584,836	7,76
585,175	7,76
585,514	7,76
585,852	7,77
586,19	7,75
586,529	7,74
586,867	7,73
587,205	7,75
587,544	7,77
587,882	7,77
588,22	7,76
588,558	7,78
588,896	7,79
589,234	7,79
589,572	7,78
589,91	7,78
590,248	7,75
590,586	7,72
590,924	7,72
591,262	7,73
591,599	7,71
591,937	7,71
592,275	7,68
592,612	7,69
592,95	7,69
593,287	7,72
593,625	7,72
593,962	7,73
594,299	7,75
594,637	7,77
594,974	7,8
595,311	7,82
595,648	7,82
595,985	7,82
596,322	7,83
596,659	7,84
596,996	7,84
597,333	7,86
597,67	7,86
598,007	7,86
598,344	7,84
598,681	7,86
599,017	7,88
599,354	7,91
599,691	7,91
600,027	7,92
600,364	7,91
600,7	7,94
601,037	7,99
601,373	8
601,71	7,99
602,046	8
602,382	8
602,718	8,03
603,054	8,05
603,391	8,06
603,727	8,06
604,063	8,07
604,399	8,09
604,735	8,12
605,071	8,15
605,406	8,16
605,742	8,19
606,078	8,2
606,414	8,22
606,749	8,24
607,085	8,23
607,421	8,24
607,756	8,22
608,092	8,18
608,427	8,16
608,762	8,14
609,098	8,13
609,433	8,1
609,768	8,07
610,104	8,05
610,439	8,03
610,774	8,02
611,109	8,02
611,444	7,99
611,779	7,95
612,114	7,92
612,449	7,92
612,784	7,87
613,118	7,82
613,453	7,78
613,788	7,74
614,123	7,71
614,457	7,66
614,792	7,63
615,126	7,63
615,461	7,63
615,795	7,66
616,13	7,62
616,464	7,62
616,798	7,61
617,132	7,62
617,467	7,66
617,801	7,68
618,135	7,69
618,469	7,71
618,803	7,76
619,137	7,77
619,471	7,77
619,805	7,81
620,139	7,84
620,472	7,88
620,806	7,88
621,14	7,89
621,473	7,94
621,807	7,91
622,141	7,92
622,474	7,89
622,808	7,87
623,141	7,86
623,474	7,9
623,808	7,9
624,141	7,91
624,474	7,93
624,807	7,93
625,141	7,93
625,474	7,92
625,807	7,95
626,14	7,96
626,473	7,95
626,806	7,93
627,138	7,94
627,471	7,9
627,804	7,91
628,137	7,92
628,469	7,91
628,802	7,93
629,135	7,93
629,467	7,93
629,8	7,95
630,132	7,95
630,465	7,97
630,797	7,99
631,129	8
631,461	7,97
631,794	7,93
632,126	7,92
632,458	7,9
632,79	7,88
633,122	7,88
633,454	7,87
633,786	7,89
634,118	7,88
634,45	7,93
634,781	7,94
635,113	7,95
635,445	7,95
635,777	7,97
636,108	8
636,44	8,01
636,771	7,99
637,103	7,97
637,434	7,91
637,765	7,88
638,097	7,86
638,428	7,85
638,759	7,85
639,09	7,84
639,422	7,86
639,753	7,86
640,084	7,86
640,415	7,88
640,746	7,88
641,077	7,89
641,407	7,88
641,738	7,9
642,069	7,89
642,4	7,9
642,73	7,9
643,061	7,87
643,392	7,85
643,722	7,88
644,053	7,91
644,383	7,96
644,713	8
645,044	8
645,374	8,02
645,704	8,08
646,034	8,08
646,365	8,06
646,695	8,04
647,025	8,06
647,355	8,06
647,685	8,03
648,015	8,02
648,344	8
648,674	7,98
649,004	7,99
649,334	8,01
649,663	8,07
649,993	8,09
650,323	8,15
650,652	8,13
650,982	8,15
651,311	8,13
651,64	8,08
651,97	8,09
652,299	8,11
652,628	8,1
652,958	8,09
653,287	8,12
653,616	8,12
653,945	8,09
654,274	8,1
654,603	8,11
654,932	8,12
655,261	8,14
655,589	8,17
655,918	8,18
656,247	8,23
656,576	8,24
656,904	8,27
657,233	8,28
657,561	8,3
657,89	8,35
658,218	8,37
658,547	8,42
658,875	8,42
659,203	8,39
659,532	8,4
659,86	8,41
660,188	8,42
660,516	8,48
660,844	8,52
661,172	8,56
661,5	8,59
661,828	8,61
662,156	8,64
662,484	8,65
662,811	8,66
663,139	8,63
663,467	8,58
663,794	8,55
664,122	8,55
664,45	8,53
664,777	8,49
665,104	8,51
665,432	8,49
665,759	8,5
666,086	8,49
666,414	8,46
666,741	8,46
