Data from zc74042_5_Reflection_00005.txt Node
Date: Thu Mar 12 14:53:44 ART 2020
User: Ana
Spectrometer: USB2E3644
Trigger mode: 4
Integration Time (sec): 5,000000E-2
Scans to average: 10
Electric dark correction enabled: true
Nonlinearity correction enabled: false
Boxcar width: 10
XAxis mode: Wavelengths
Number of Pixels in Spectrum: 2048
>>>>>Begin Spectral Data<<<<<
178,315	131,79
178,696	141,55
179,076	158
179,457	169,82
179,838	150,51
180,218	135,9
180,599	235,9
180,979	50
181,36	99,22
181,74	124,5
182,121	126,39
182,501	133,04
182,881	119,26
183,262	114,18
183,642	113,33
184,022	116,6
184,402	120,03
184,783	119,19
185,163	118,25
185,543	116,46
185,923	116,18
186,303	119,02
186,683	121,23
187,063	121,29
187,443	118,3
187,823	113,57
188,203	112,17
188,583	113,48
188,963	116,45
189,343	118,87
189,723	117,24
190,102	115,3
190,482	118,04
190,862	120,66
191,242	122,22
191,621	121,74
192,001	121,29
192,38	119,07
192,76	117,76
193,14	116,97
193,519	115,72
193,898	115,17
194,278	116,27
194,657	116,57
195,037	117,48
195,416	119,08
195,795	119,62
196,175	118,72
196,554	117,18
196,933	114,32
197,312	111,88
197,692	110,56
198,071	110,07
198,45	108,39
198,829	107,96
199,208	107,69
199,587	107,25
199,966	106,37
200,345	105,72
200,724	105,1
201,103	104,5
201,482	104,23
201,86	104,4
202,239	104,19
202,618	103,77
202,997	102,93
203,375	102,19
203,754	103,15
204,133	104,63
204,511	105,53
204,89	105,54
205,269	106,12
205,647	107,87
206,026	109,05
206,404	110,56
206,782	110,53
207,161	109,71
207,539	109,73
207,918	110,56
208,296	111,22
208,674	112,78
209,052	113,99
209,431	115,07
209,809	114,22
210,187	112,08
210,565	110,22
210,943	110,25
211,321	111,82
211,699	112,26
212,077	111,58
212,455	111,87
212,833	113,42
213,211	114,62
213,589	115,11
213,967	115,78
214,345	115,53
214,722	115,5
215,1	117,45
215,478	118,11
215,855	117,82
216,233	118,66
216,611	119,65
216,988	120,55
217,366	120,56
217,743	120,93
218,121	123,25
218,498	126,05
218,876	127,36
219,253	126,39
219,631	126,47
220,008	127,53
220,385	127,48
220,762	126,3
221,14	127,14
221,517	126,72
221,894	126,01
222,271	128,31
222,648	131,31
223,025	132,53
223,402	134,2
223,78	136,73
224,157	138,73
224,533	138,4
224,91	138,21
225,287	140,51
225,664	146,15
226,041	151,77
226,418	155,46
226,795	155,57
227,171	157,31
227,548	159,13
227,925	160,16
228,301	162,19
228,678	165,03
229,055	164,83
229,431	166,84
229,808	170,64
230,184	172,47
230,561	174,61
230,937	177,82
231,313	181,72
231,69	183,68
232,066	181,86
232,442	183
232,819	189,28
233,195	191,61
233,571	192,33
233,947	192,65
234,323	194,1
234,699	200,5
235,075	203,93
235,451	207,44
235,827	211,56
236,203	216,18
236,579	223,27
236,955	236,74
237,331	250,15
237,707	265,88
238,083	294,39
238,459	348,19
238,834	443,79
239,21	628,31
239,586	1004,17
239,961	2066,67
240,337	6364,81
240,713	-12685,19
241,088	-3530,21
241,464	-2549,24
241,839	-1901,13
242,215	-1140,07
242,59	-667,06
242,965	-370,22
243,341	-220,59
243,716	-149,63
244,091	-118,26
244,467	-101,5
244,842	-91,01
245,217	-83,22
245,592	-79,27
245,967	-79,62
246,343	-79,46
246,718	-79,52
247,093	-82,41
247,468	-83,36
247,843	-81,67
248,218	-77,62
248,593	-71,79
248,967	-66,18
249,342	-63,79
249,717	-62,56
250,092	-61,8
250,467	-62,73
250,841	-67,12
251,216	-76,21
251,591	-90,91
251,965	-104,98
252,34	-116,19
252,714	-127,29
253,089	-135,38
253,463	-142,62
253,838	-141,22
254,212	-135,56
254,587	-126,07
254,961	-110,12
255,335	-95,36
255,71	-80,55
256,084	-64,99
256,458	-53,85
256,832	-46,62
257,206	-42,17
257,581	-39,6
257,955	-37,67
258,329	-35,97
258,703	-34,28
259,077	-33,04
259,451	-31,96
259,825	-31,38
260,199	-31,33
260,572	-31,2
260,946	-31,28
261,32	-30,67
261,694	-29,72
262,068	-29,51
262,441	-29,6
262,815	-30,01
263,189	-30,05
263,562	-30,69
263,936	-33,02
264,309	-36,39
264,683	-39,75
265,056	-41,41
265,43	-42,19
265,803	-42,35
266,176	-41,85
266,55	-41,61
266,923	-40,75
267,296	-39,5
267,67	-37,69
268,043	-36,12
268,416	-34,04
268,789	-32,24
269,162	-30,81
269,535	-29,36
269,908	-27,88
270,281	-26,79
270,654	-26,25
271,027	-26,65
271,4	-26,65
271,773	-26,19
272,146	-25,66
272,519	-25,51
272,891	-25,53
273,264	-25,64
273,637	-25,97
274,01	-26,12
274,382	-26,33
274,755	-26,51
275,127	-26,53
275,5	-26,62
275,872	-26,5
276,245	-26,47
276,617	-26,82
276,99	-27,18
277,362	-28,1
277,734	-28,62
278,107	-28,74
278,479	-28,71
278,851	-27,96
279,223	-27,35
279,596	-27,03
279,968	-27,02
280,34	-26,47
280,712	-25,82
281,084	-24,75
281,456	-23,39
281,828	-22,01
282,2	-20,51
282,572	-19,3
282,944	-18,37
283,315	-17,87
283,687	-17,4
284,059	-17,27
284,431	-16,84
284,802	-16,29
285,174	-15,79
285,546	-15,46
285,917	-14,95
286,289	-14,44
286,66	-14,28
287,032	-14,18
287,403	-14,04
287,775	-13,93
288,146	-14,08
288,518	-14,22
288,889	-14,22
289,26	-14,29
289,632	-14,72
290,003	-15,29
290,374	-15,65
290,745	-16,01
291,116	-16,09
291,487	-16,2
291,858	-16,17
292,229	-16,32
292,6	-16,25
292,971	-15,81
293,342	-15,22
293,713	-14,69
294,084	-14,24
294,455	-13,59
294,826	-13,17
295,196	-12,97
295,567	-12,95
295,938	-12,68
296,308	-12,44
296,679	-12,17
297,05	-11,82
297,42	-11,47
297,791	-11,03
298,161	-10,92
298,532	-10,72
298,902	-10,54
299,272	-10,32
299,643	-10,1
300,013	-9,79
300,383	-9,64
300,754	-9,67
301,124	-9,83
301,494	-10,07
301,864	-10,36
302,234	-10,68
302,604	-10,82
302,974	-10,81
303,344	-10,57
303,714	-10,5
304,084	-10,36
304,454	-10,43
304,824	-10,64
305,194	-10,76
305,563	-10,88
305,933	-10,81
306,303	-10,56
306,673	-10,16
307,042	-9,83
307,412	-9,45
307,781	-9,01
308,151	-8,67
308,521	-8,6
308,89	-8,47
309,259	-8,51
309,629	-8,55
309,998	-8,6
310,368	-8,63
310,737	-8,62
311,106	-8,6
311,475	-8,48
311,845	-8,39
312,214	-8,22
312,583	-8,13
312,952	-8,16
313,321	-8,07
313,69	-7,84
314,059	-7,8
314,428	-7,93
314,797	-8,02
315,166	-8,28
315,535	-8,71
315,904	-9,08
316,272	-9,15
316,641	-9,22
317,01	-9,07
317,379	-8,84
317,747	-8,59
318,116	-8,32
318,484	-7,98
318,853	-7,74
319,221	-7,68
319,59	-7,81
319,958	-7,85
320,327	-7,78
320,695	-7,64
321,063	-7,55
321,432	-7,44
321,8	-7,18
322,168	-7,03
322,536	-7,07
322,905	-6,8
323,273	-6,47
323,641	-6,22
324,009	-6,06
324,377	-6,02
324,745	-5,91
325,113	-5,74
325,481	-5,55
325,849	-5,48
326,216	-5,56
326,584	-5,52
326,952	-5,44
327,32	-5,17
327,687	-5,03
328,055	-4,81
328,423	-4,58
328,79	-4,52
329,158	-4,59
329,525	-4,81
329,893	-4,83
330,26	-4,68
330,628	-4,67
330,995	-4,69
331,362	-4,71
331,73	-4,65
332,097	-4,5
332,464	-4,34
332,831	-4,17
333,199	-4,1
333,566	-3,96
333,933	-3,73
334,3	-3,56
334,667	-3,4
335,034	-3,28
335,401	-3,21
335,768	-3,17
336,135	-3,17
336,502	-3,12
336,868	-3,01
337,235	-2,89
337,602	-2,83
337,969	-2,77
338,335	-2,68
338,702	-2,5
339,069	-2,37
339,435	-2,3
339,802	-2,15
340,168	-2,06
340,535	-1,98
340,901	-2
341,267	-2,07
341,634	-2,09
342	-2,12
342,366	-2,13
342,733	-2,19
343,099	-2,13
343,465	-2,14
343,831	-2,15
344,197	-2,1
344,563	-2,08
344,929	-2,04
345,295	-1,94
345,661	-1,84
346,027	-1,78
346,393	-1,79
346,759	-1,76
347,125	-1,72
347,491	-1,75
347,856	-1,79
348,222	-1,86
348,588	-1,73
348,953	-1,56
349,319	-1,58
349,684	-1,59
350,05	-1,58
350,415	-1,48
350,781	-1,42
351,146	-1,29
351,512	-1,15
351,877	-1,05
352,242	-0,94
352,608	-0,83
352,973	-0,74
353,338	-0,66
353,703	-0,58
354,068	-0,59
354,433	-0,54
354,798	-0,47
355,164	-0,43
355,528	-0,37
355,893	-0,36
356,258	-0,38
356,623	-0,33
356,988	-0,18
357,353	-0,1
357,718	-0,03
358,082	0,01
358,447	0,05
358,812	0,13
359,176	0,17
359,541	0,21
359,905	0,2
360,27	0,19
360,634	0,18
360,999	0,19
361,363	0,23
361,728	0,32
362,092	0,42
362,456	0,5
362,821	0,6
363,185	0,7
363,549	0,85
363,913	0,9
364,277	0,87
364,641	0,86
365,005	0,93
365,369	0,98
365,733	1,04
366,097	1,08
366,461	1,09
366,825	1,14
367,189	1,19
367,553	1,31
367,916	1,45
368,28	1,6
368,644	1,7
369,007	1,8
369,371	1,88
369,734	1,93
370,098	1,98
370,461	2,05
370,825	2,09
371,188	2,14
371,552	2,24
371,915	2,33
372,278	2,46
372,642	2,54
373,005	2,64
373,368	2,77
373,731	2,89
374,094	2,97
374,457	3,03
374,82	3,13
375,183	3,21
375,546	3,28
375,909	3,32
376,272	3,39
376,635	3,46
376,998	3,52
377,361	3,6
377,723	3,66
378,086	3,69
378,449	3,74
378,811	3,79
379,174	3,87
379,537	3,95
379,899	3,99
380,262	4,03
380,624	4,06
380,987	4,1
381,349	4,14
381,711	4,2
382,074	4,27
382,436	4,33
382,798	4,4
383,16	4,43
383,522	4,48
383,884	4,52
384,247	4,55
384,609	4,62
384,971	4,68
385,333	4,72
385,695	4,75
386,056	4,78
386,418	4,78
386,78	4,77
387,142	4,77
387,504	4,77
387,865	4,8
388,227	4,83
388,589	4,84
388,95	4,84
389,312	4,83
389,673	4,85
390,035	4,85
390,396	4,84
390,758	4,81
391,119	4,78
391,48	4,77
391,842	4,75
392,203	4,71
392,564	4,7
392,925	4,72
393,286	4,75
393,648	4,78
394,009	4,83
394,37	4,87
394,731	4,9
395,092	4,9
395,452	4,91
395,813	4,92
396,174	4,93
396,535	4,96
396,896	4,98
397,257	4,99
397,617	5,02
397,978	5,04
398,338	5,07
398,699	5,13
399,06	5,17
399,42	5,19
399,781	5,24
400,141	5,26
400,501	5,26
400,862	5,25
401,222	5,24
401,582	5,24
401,943	5,27
402,303	5,27
402,663	5,29
403,023	5,28
403,383	5,3
403,743	5,29
404,103	5,29
404,463	5,32
404,823	5,36
405,183	5,37
405,543	5,41
405,903	5,43
406,262	5,42
406,622	5,4
406,982	5,42
407,342	5,43
407,701	5,44
408,061	5,43
408,42	5,44
408,78	5,47
409,139	5,46
409,499	5,45
409,858	5,47
410,217	5,5
410,577	5,52
410,936	5,52
411,295	5,53
411,655	5,51
412,014	5,47
412,373	5,41
412,732	5,35
413,091	5,29
413,45	5,24
413,809	5,2
414,168	5,18
414,527	5,11
414,886	5,04
415,245	5
415,603	4,97
415,962	4,95
416,321	4,92
416,679	4,88
417,038	4,82
417,397	4,76
417,755	4,72
418,114	4,69
418,472	4,68
418,831	4,67
419,189	4,66
419,547	4,64
419,906	4,63
420,264	4,62
420,622	4,6
420,981	4,6
421,339	4,61
421,697	4,6
422,055	4,62
422,413	4,64
422,771	4,65
423,129	4,68
423,487	4,7
423,845	4,72
424,203	4,74
424,56	4,78
424,918	4,83
425,276	4,87
425,634	4,9
425,991	4,92
426,349	4,96
426,707	5
427,064	5,05
427,422	5,09
427,779	5,15
428,137	5,22
428,494	5,28
428,851	5,3
429,209	5,31
429,566	5,31
429,923	5,3
430,28	5,28
430,637	5,26
430,995	5,25
431,352	5,25
431,709	5,25
432,066	5,26
432,423	5,26
432,78	5,26
433,137	5,26
433,493	5,25
433,85	5,26
434,207	5,23
434,564	5,2
434,92	5,19
435,277	5,17
435,634	5,16
435,99	5,14
436,347	5,13
436,703	5,16
437,06	5,15
437,416	5,16
437,773	5,15
438,129	5,14
438,485	5,15
438,841	5,14
439,198	5,14
439,554	5,13
439,91	5,14
440,266	5,14
440,622	5,14
440,978	5,14
441,334	5,11
441,69	5,1
442,046	5,08
442,402	5,07
442,758	5,06
443,113	5,05
443,469	5,05
443,825	5,05
444,181	5,05
444,536	5,07
444,892	5,08
445,247	5,1
445,603	5,12
445,958	5,13
446,314	5,14
446,669	5,15
447,025	5,15
447,38	5,15
447,735	5,15
448,09	5,15
448,446	5,15
448,801	5,17
449,156	5,19
449,511	5,24
449,866	5,26
450,221	5,3
450,576	5,33
450,931	5,38
451,286	5,42
451,641	5,45
451,995	5,47
452,35	5,51
452,705	5,54
453,06	5,54
453,414	5,56
453,769	5,57
454,123	5,57
454,478	5,58
454,832	5,59
455,187	5,58
455,541	5,57
455,896	5,56
456,25	5,54
456,604	5,52
456,958	5,5
457,313	5,51
457,667	5,5
458,021	5,52
458,375	5,52
458,729	5,54
459,083	5,54
459,437	5,55
459,791	5,55
460,145	5,54
460,499	5,54
460,852	5,53
461,206	5,54
461,56	5,54
461,914	5,55
462,267	5,56
462,621	5,58
462,974	5,6
463,328	5,63
463,681	5,65
464,035	5,67
464,388	5,72
464,742	5,73
465,095	5,73
465,448	5,74
465,801	5,74
466,155	5,74
466,508	5,75
466,861	5,75
467,214	5,76
467,567	5,78
467,92	5,8
468,273	5,81
468,626	5,81
468,979	5,81
469,332	5,82
469,684	5,83
470,037	5,84
470,39	5,84
470,743	5,85
471,095	5,88
471,448	5,9
471,8	5,91
472,153	5,93
472,505	5,95
472,858	5,96
473,21	5,98
473,562	6
473,915	6
474,267	6
474,619	6
474,971	6,01
475,324	5,99
475,676	6
476,028	6,01
476,38	6,02
476,732	6,01
477,084	6,01
477,436	5,98
477,787	5,99
478,139	5,97
478,491	5,97
478,843	5,96
479,195	5,94
479,546	5,9
479,898	5,88
480,249	5,83
480,601	5,78
480,952	5,74
481,304	5,72
481,655	5,7
482,007	5,69
482,358	5,67
482,709	5,67
483,061	5,66
483,412	5,66
483,763	5,66
484,114	5,66
484,465	5,66
484,816	5,66
485,167	5,66
485,518	5,66
485,869	5,66
486,22	5,67
486,571	5,67
486,922	5,68
487,272	5,69
487,623	5,71
487,974	5,75
488,324	5,76
488,675	5,78
489,025	5,79
489,376	5,8
489,726	5,82
490,077	5,84
490,427	5,85
490,778	5,87
491,128	5,89
491,478	5,9
491,828	5,93
492,179	5,96
492,529	5,99
492,879	6,01
493,229	6,04
493,579	6,06
493,929	6,08
494,279	6,1
494,629	6,12
494,979	6,13
495,328	6,15
495,678	6,19
496,028	6,24
496,378	6,27
496,727	6,31
497,077	6,35
497,426	6,38
497,776	6,4
498,125	6,43
498,475	6,45
498,824	6,48
499,174	6,49
499,523	6,5
499,872	6,53
500,221	6,56
500,571	6,58
500,92	6,59
501,269	6,61
501,618	6,62
501,967	6,66
502,316	6,69
502,665	6,71
503,014	6,73
503,363	6,74
503,711	6,78
504,06	6,78
504,409	6,78
504,758	6,78
505,106	6,78
505,455	6,78
505,803	6,77
506,152	6,75
506,5	6,77
506,849	6,78
507,197	6,78
507,546	6,79
507,894	6,81
508,242	6,82
508,59	6,83
508,939	6,83
509,287	6,84
509,635	6,85
509,983	6,88
510,331	6,9
510,679	6,92
511,027	6,92
511,375	6,94
511,723	6,96
512,07	6,99
512,418	7,04
512,766	7,07
513,114	7,1
513,461	7,14
513,809	7,16
514,156	7,17
514,504	7,19
514,851	7,18
515,199	7,18
515,546	7,19
515,893	7,19
516,241	7,23
516,588	7,23
516,935	7,25
517,282	7,27
517,63	7,29
517,977	7,3
518,324	7,33
518,671	7,34
519,018	7,35
519,365	7,36
519,711	7,34
520,058	7,35
520,405	7,36
520,752	7,38
521,099	7,4
521,445	7,4
521,792	7,43
522,138	7,46
522,485	7,48
522,832	7,51
523,178	7,54
523,524	7,55
523,871	7,57
524,217	7,58
524,563	7,58
524,91	7,56
525,256	7,55
525,602	7,54
525,948	7,53
526,294	7,53
526,64	7,51
526,986	7,52
527,332	7,51
527,678	7,52
528,024	7,52
528,37	7,53
528,716	7,53
529,061	7,55
529,407	7,56
529,753	7,57
530,098	7,58
530,444	7,6
530,789	7,6
531,135	7,6
531,48	7,6
531,826	7,61
532,171	7,64
532,516	7,66
532,862	7,71
533,207	7,75
533,552	7,78
533,897	7,83
534,242	7,85
534,587	7,88
534,932	7,9
535,277	7,92
535,622	7,95
535,967	7,99
536,312	8
536,657	8,03
537,001	8,07
537,346	8,11
537,691	8,15
538,035	8,19
538,38	8,22
538,724	8,24
539,069	8,26
539,413	8,27
539,758	8,28
540,102	8,3
540,446	8,31
540,791	8,31
541,135	8,33
541,479	8,35
541,823	8,38
542,167	8,39
542,512	8,41
542,856	8,4
543,2	8,41
543,543	8,43
543,887	8,44
544,231	8,46
544,575	8,47
544,919	8,49
545,262	8,51
545,606	8,54
545,95	8,58
546,293	8,61
546,637	8,65
546,98	8,69
547,324	8,69
547,667	8,77
548,011	8,8
548,354	8,84
548,697	8,86
549,04	8,9
549,384	8,94
549,727	8,95
550,07	8,98
550,413	9
550,756	9,02
551,099	9,06
551,442	9,07
551,785	9,11
552,128	9,14
552,47	9,17
552,813	9,2
553,156	9,2
553,499	9,21
553,841	9,23
554,184	9,24
554,526	9,25
554,869	9,22
555,211	9,23
555,554	9,25
555,896	9,26
556,238	9,23
556,581	9,22
556,923	9,22
557,265	9,23
557,607	9,26
557,949	9,27
558,291	9,28
558,633	9,29
558,975	9,28
559,317	9,26
559,659	9,26
560,001	9,26
560,343	9,28
560,685	9,29
561,026	9,32
561,368	9,32
561,71	9,32
562,051	9,36
562,393	9,38
562,734	9,36
563,076	9,37
563,417	9,37
563,759	9,38
564,1	9,42
564,441	9,45
564,782	9,44
565,124	9,44
565,465	9,46
565,806	9,48
566,147	9,47
566,488	9,47
566,829	9,47
567,17	9,49
567,511	9,49
567,851	9,52
568,192	9,52
568,533	9,54
568,874	9,58
569,214	9,6
569,555	9,59
569,895	9,61
570,236	9,62
570,576	9,63
570,917	9,66
571,257	9,68
571,598	9,68
571,938	9,7
572,278	9,74
572,618	9,75
572,959	9,78
573,299	9,79
573,639	9,81
573,979	9,83
574,319	9,85
574,659	9,87
574,999	9,88
575,339	9,9
575,678	9,91
576,018	9,91
576,358	9,9
576,698	9,93
577,037	9,92
577,377	9,92
577,716	9,95
578,056	9,96
578,395	9,95
578,735	9,95
579,074	9,96
579,413	9,94
579,753	9,92
580,092	9,88
580,431	9,91
580,77	9,94
581,109	9,98
581,448	9,99
581,787	9,98
582,126	9,98
582,465	9,98
582,804	10
583,143	10,02
583,482	10,05
583,82	10,08
584,159	10,1
584,498	10,12
584,836	10,14
585,175	10,15
585,514	10,2
585,852	10,22
586,19	10,24
586,529	10,27
586,867	10,3
587,205	10,35
587,544	10,37
587,882	10,39
588,22	10,4
588,558	10,43
588,896	10,47
589,234	10,49
589,572	10,52
589,91	10,56
590,248	10,58
590,586	10,6
590,924	10,64
591,262	10,69
591,599	10,76
591,937	10,81
592,275	10,85
592,612	10,88
592,95	10,94
593,287	11
593,625	11,07
593,962	11,14
594,299	11,19
594,637	11,25
594,974	11,3
595,311	11,34
595,648	11,37
595,985	11,4
596,322	11,44
596,659	11,45
596,996	11,49
597,333	11,48
597,67	11,51
598,007	11,55
598,344	11,58
598,681	11,6
599,017	11,62
599,354	11,67
599,691	11,68
600,027	11,75
600,364	11,79
600,7	11,84
601,037	11,91
601,373	11,99
601,71	12,03
602,046	12,09
602,382	12,13
602,718	12,17
603,054	12,2
603,391	12,24
603,727	12,27
604,063	12,3
604,399	12,36
604,735	12,4
605,071	12,43
605,406	12,47
605,742	12,53
606,078	12,59
606,414	12,63
606,749	12,67
607,085	12,69
607,421	12,72
607,756	12,73
608,092	12,73
608,427	12,73
608,762	12,74
609,098	12,75
609,433	12,76
609,768	12,78
610,104	12,8
610,439	12,79
610,774	12,83
611,109	12,86
611,444	12,86
611,779	12,87
612,114	12,87
612,449	12,88
612,784	12,87
613,118	12,84
613,453	12,83
613,788	12,85
614,123	12,85
614,457	12,84
614,792	12,85
615,126	12,87
615,461	12,9
615,795	12,96
616,13	12,98
616,464	13,02
616,798	13,06
617,132	13,08
617,467	13,11
617,801	13,14
618,135	13,19
618,469	13,24
618,803	13,29
619,137	13,34
619,471	13,38
619,805	13,43
620,139	13,5
620,472	13,58
620,806	13,6
621,14	13,62
621,473	13,68
621,807	13,71
622,141	13,75
622,474	13,77
622,808	13,79
623,141	13,84
623,474	13,88
623,808	13,94
624,141	14,04
624,474	14,11
624,807	14,15
625,141	14,18
625,474	14,24
625,807	14,28
626,14	14,3
626,473	14,32
626,806	14,36
627,138	14,37
627,471	14,36
627,804	14,43
628,137	14,49
628,469	14,52
628,802	14,58
629,135	14,62
629,467	14,66
629,8	14,7
630,132	14,74
630,465	14,78
630,797	14,83
631,129	14,82
631,461	14,85
631,794	14,9
632,126	14,92
632,458	14,95
632,79	15
633,122	15,05
633,454	15,06
633,786	15,08
634,118	15,1
634,45	15,15
634,781	15,16
635,113	15,17
635,445	15,18
635,777	15,19
636,108	15,21
636,44	15,24
636,771	15,3
637,103	15,31
637,434	15,32
637,765	15,29
638,097	15,36
638,428	15,4
638,759	15,4
639,09	15,42
639,422	15,46
639,753	15,47
640,084	15,52
640,415	15,57
640,746	15,65
641,077	15,73
641,407	15,77
641,738	15,8
642,069	15,82
642,4	15,87
642,73	15,94
643,061	16,01
643,392	16,05
643,722	16,08
644,053	16,1
644,383	16,13
644,713	16,22
645,044	16,26
645,374	16,31
645,704	16,38
646,034	16,44
646,365	16,44
646,695	16,47
647,025	16,56
647,355	16,62
647,685	16,63
648,015	16,64
648,344	16,7
648,674	16,72
649,004	16,77
649,334	16,82
649,663	16,85
649,993	16,87
650,323	16,91
650,652	16,93
650,982	17,01
651,311	17,08
651,64	17,07
651,97	17,09
652,299	17,14
652,628	17,2
652,958	17,27
653,287	17,37
653,616	17,43
653,945	17,43
654,274	17,45
654,603	17,48
654,932	17,53
655,261	17,54
655,589	17,62
655,918	17,74
656,247	17,82
656,576	17,89
656,904	17,97
657,233	18
657,561	18,08
657,89	18,11
658,218	18,15
