Data from zc74019_5_Reflection_00003.txt Node
Date: Thu Mar 12 14:45:32 ART 2020
User: Ana
Spectrometer: USB2E3644
Trigger mode: 4
Integration Time (sec): 5,000000E-2
Scans to average: 10
Electric dark correction enabled: true
Nonlinearity correction enabled: false
Boxcar width: 10
XAxis mode: Wavelengths
Number of Pixels in Spectrum: 2048
>>>>>Begin Spectral Data<<<<<
178,315	98,48
178,696	95,95
179,076	81,4
179,457	68,89
179,838	71,95
180,218	93,65
180,599	76,67
180,979	75,86
181,36	156,67
181,74	169,05
182,121	140,38
182,501	166,98
182,881	173,29
183,262	160,68
183,642	153,41
184,022	152,52
184,402	150,28
184,783	145,66
185,163	137,5
185,543	138,82
185,923	139,73
186,303	142,36
186,683	145,31
187,063	143,6
187,443	142,6
187,823	148,15
188,203	154,53
188,583	159,24
188,963	158,8
189,343	156,75
189,723	155,96
190,102	158,72
190,482	154,18
190,862	151,78
191,242	152,07
191,621	151,99
192,001	147,68
192,38	146,15
192,76	143,34
193,14	141,19
193,519	139,52
193,898	139,63
194,278	138,07
194,657	135,75
195,037	135,65
195,416	133,9
195,795	131,93
196,175	131,52
196,554	130,99
196,933	131,16
197,312	131,95
197,692	131,15
198,071	129,23
198,45	128,56
198,829	128,98
199,208	129,02
199,587	129,55
199,966	129,24
200,345	128,93
200,724	131,67
201,103	133,93
201,482	133,57
201,86	130,79
202,239	130,06
202,618	128,98
202,997	127,12
203,375	128,05
203,754	129,51
204,133	129,21
204,511	127,55
204,89	127,42
205,269	127,73
205,647	127,84
206,026	129,77
206,404	133,69
206,782	134,91
207,161	135,73
207,539	136,23
207,918	137,57
208,296	137,32
208,674	136,12
209,052	137
209,431	140,98
209,809	146,13
210,187	148,98
210,565	150,73
210,943	152,37
211,321	152,1
211,699	150
212,077	147,74
212,455	146,43
212,833	146,71
213,211	145,28
213,589	146,41
213,967	146,29
214,345	141,16
214,722	135,76
215,1	132,8
215,478	131,19
215,855	131,32
216,233	131,47
216,611	129,59
216,988	126,42
217,366	122,25
217,743	120,8
218,121	120,29
218,498	120,81
218,876	120,57
219,253	121,56
219,631	124,84
220,008	128,33
220,385	131,46
220,762	132,38
221,14	133,47
221,517	131,94
221,894	130,18
222,271	132,7
222,648	137,67
223,025	141,22
223,402	142,42
223,78	143,32
224,157	147,26
224,533	153,71
224,91	162,78
225,287	172,33
225,664	179,94
226,041	187,24
226,418	193,47
226,795	200,77
227,171	211,74
227,548	217,15
227,925	218,28
228,301	221,99
228,678	224,39
229,055	224,76
229,431	231,48
229,808	237,79
230,184	239,3
230,561	246,78
230,937	260,03
231,313	272,42
231,69	275
232,066	274,42
232,442	263,05
232,819	251,56
233,195	242,45
233,571	241,1
233,947	238,25
234,323	238,58
234,699	238,32
235,075	234,1
235,451	237,1
235,827	242,51
236,203	252,51
236,579	266,34
236,955	287,92
237,331	315,63
237,707	368,98
238,083	460,7
238,459	609,45
238,834	1072,58
239,21	6630
239,586	-1520,77
239,961	-875,66
240,337	-625,63
240,713	-541,26
241,088	-501,77
241,464	-466,43
241,839	-421,4
242,215	-352,11
242,59	-280,91
242,965	-199,52
243,341	-140,58
243,716	-104,35
244,091	-87,38
244,467	-77,94
244,842	-71,08
245,217	-65,62
245,592	-62,15
245,967	-62,46
246,343	-62,05
246,718	-61,79
247,093	-62,72
247,468	-63,89
247,843	-62,86
248,218	-60,37
248,593	-55,9
248,967	-51,68
249,342	-49,47
249,717	-48,47
250,092	-48,22
250,467	-48,92
250,841	-52,26
251,216	-59,08
251,591	-69,01
251,965	-77,58
252,34	-84,25
252,714	-91,59
253,089	-96,22
253,463	-98,46
253,838	-95,32
254,212	-91,55
254,587	-87,36
254,961	-79,05
255,335	-69,28
255,71	-59,21
256,084	-48,48
256,458	-41,08
256,832	-36,19
257,206	-33,32
257,581	-31,28
257,955	-29,57
258,329	-27,92
258,703	-26,48
259,077	-25,33
259,451	-24,32
259,825	-23,9
260,199	-23,92
260,572	-23,4
260,946	-23,24
261,32	-23,16
261,694	-22,95
262,068	-23,14
262,441	-23,13
262,815	-23,64
263,189	-23,94
263,562	-24,56
263,936	-26,3
264,309	-28,9
264,683	-31,49
265,056	-32,6
265,43	-33,29
265,803	-33,63
266,176	-34,06
266,55	-33,76
266,923	-33,26
267,296	-32,23
267,67	-30,76
268,043	-29,62
268,416	-28,12
268,789	-26,61
269,162	-24,82
269,535	-23,32
269,908	-22,06
270,281	-21,44
270,654	-21,09
271,027	-21,11
271,4	-21,1
271,773	-21,09
272,146	-21,01
272,519	-20,94
272,891	-21,08
273,264	-21,19
273,637	-21,37
274,01	-21,15
274,382	-21,5
274,755	-21,5
275,127	-21,62
275,5	-21,83
275,872	-21,76
276,245	-22,11
276,617	-22,59
276,99	-23,26
277,362	-23,84
277,734	-23,79
278,107	-23,53
278,479	-23,23
278,851	-22,93
279,223	-22,82
279,596	-22,89
279,968	-22,94
280,34	-22,9
280,712	-22,57
281,084	-21,78
281,456	-20,75
281,828	-19,68
282,2	-18,54
282,572	-17,63
282,944	-17,09
283,315	-16,71
283,687	-16,3
284,059	-15,95
284,431	-15,65
284,802	-15,26
285,174	-15
285,546	-14,91
285,917	-14,57
286,289	-14,25
286,66	-14,01
287,032	-13,63
287,403	-13,17
287,775	-12,75
288,146	-12,67
288,518	-12,75
288,889	-12,71
289,26	-12,75
289,632	-13,08
290,003	-13,32
290,374	-13,58
290,745	-13,77
291,116	-13,93
291,487	-14,04
291,858	-14,07
292,229	-14,08
292,6	-14,22
292,971	-13,91
293,342	-13,45
293,713	-12,99
294,084	-12,59
294,455	-12,17
294,826	-11,98
295,196	-12,07
295,567	-12,41
295,938	-12,23
296,308	-11,9
296,679	-11,71
297,05	-11,57
297,42	-11,33
297,791	-11,07
298,161	-10,93
298,532	-10,59
298,902	-10,2
299,272	-9,97
299,643	-9,85
300,013	-9,37
300,383	-8,91
300,754	-8,92
301,124	-9,11
301,494	-9,45
301,864	-9,74
302,234	-9,97
302,604	-9,92
302,974	-9,83
303,344	-9,51
303,714	-9,4
304,084	-9,31
304,454	-9,36
304,824	-9,47
305,194	-9,6
305,563	-9,62
305,933	-9,45
306,303	-9,31
306,673	-9,12
307,042	-8,89
307,412	-8,61
307,781	-8,48
308,151	-8,37
308,521	-8,19
308,89	-8,05
309,259	-8
309,629	-7,99
309,998	-7,91
310,368	-7,98
310,737	-7,86
311,106	-7,76
311,475	-7,65
311,845	-7,68
312,214	-7,61
312,583	-7,52
312,952	-7,52
313,321	-7,47
313,69	-7,31
314,059	-7,22
314,428	-7,3
314,797	-7,27
315,166	-7,34
315,535	-7,62
315,904	-7,88
316,272	-8,11
316,641	-8,24
317,01	-8,23
317,379	-8,21
317,747	-8,14
318,116	-8
318,484	-7,95
318,853	-7,94
319,221	-7,84
319,59	-7,82
319,958	-7,8
320,327	-7,75
320,695	-7,54
321,063	-7,41
321,432	-7,24
321,8	-7,09
322,168	-6,99
322,536	-7,06
322,905	-6,89
323,273	-6,51
323,641	-6,25
324,009	-6
324,377	-5,83
324,745	-5,71
325,113	-5,54
325,481	-5,35
325,849	-5,24
326,216	-5,13
326,584	-4,98
326,952	-4,92
327,32	-4,64
327,687	-4,4
328,055	-4,17
328,423	-4,04
328,79	-3,95
329,158	-3,99
329,525	-4,05
329,893	-3,97
330,26	-3,77
330,628	-3,8
330,995	-3,91
331,362	-3,92
331,73	-3,93
332,097	-3,85
332,464	-3,71
332,831	-3,49
333,199	-3,37
333,566	-3,15
333,933	-2,92
334,3	-2,76
334,667	-2,67
335,034	-2,67
335,401	-2,66
335,768	-2,69
336,135	-2,73
336,502	-2,71
336,868	-2,61
337,235	-2,48
337,602	-2,43
337,969	-2,4
338,335	-2,31
338,702	-2,15
339,069	-2,05
339,435	-1,97
339,802	-1,86
340,168	-1,86
340,535	-1,85
340,901	-1,92
341,267	-2,08
341,634	-2,08
342	-2,09
342,366	-2,04
342,733	-2,03
343,099	-1,98
343,465	-1,98
343,831	-1,94
344,197	-1,87
344,563	-1,9
344,929	-1,88
345,295	-1,75
345,661	-1,65
346,027	-1,57
346,393	-1,57
346,759	-1,54
347,125	-1,56
347,491	-1,57
347,856	-1,59
348,222	-1,68
348,588	-1,6
348,953	-1,45
349,319	-1,5
349,684	-1,48
350,05	-1,52
350,415	-1,47
350,781	-1,41
351,146	-1,26
351,512	-1,1
351,877	-1,07
352,242	-1
352,608	-0,94
352,973	-0,94
353,338	-0,9
353,703	-0,81
354,068	-0,74
354,433	-0,68
354,798	-0,55
355,164	-0,46
355,528	-0,29
355,893	-0,15
356,258	-0,1
356,623	-0,02
356,988	0,15
357,353	0,25
357,718	0,36
358,082	0,45
358,447	0,51
358,812	0,57
359,176	0,58
359,541	0,66
359,905	0,75
360,27	0,78
360,634	0,79
360,999	0,83
361,363	0,85
361,728	0,87
362,092	0,93
362,456	0,97
362,821	1,04
363,185	1,1
363,549	1,16
363,913	1,22
364,277	1,26
364,641	1,23
365,005	1,25
365,369	1,27
365,733	1,29
366,097	1,35
366,461	1,39
366,825	1,46
367,189	1,49
367,553	1,5
367,916	1,61
368,28	1,74
368,644	1,77
369,007	1,8
369,371	1,87
369,734	1,92
370,098	1,94
370,461	1,98
370,825	2,01
371,188	2,05
371,552	2,09
371,915	2,15
372,278	2,26
372,642	2,36
373,005	2,51
373,368	2,65
373,731	2,73
374,094	2,81
374,457	2,87
374,82	2,97
375,183	3,07
375,546	3,12
375,909	3,17
376,272	3,27
376,635	3,4
376,998	3,49
377,361	3,56
377,723	3,65
378,086	3,73
378,449	3,8
378,811	3,86
379,174	3,94
379,537	3,98
379,899	4,01
380,262	4,03
380,624	4,04
380,987	4,07
381,349	4,12
381,711	4,17
382,074	4,24
382,436	4,29
382,798	4,35
383,16	4,36
383,522	4,37
383,884	4,39
384,247	4,41
384,609	4,45
384,971	4,47
385,333	4,47
385,695	4,48
386,056	4,49
386,418	4,49
386,78	4,47
387,142	4,47
387,504	4,49
387,865	4,49
388,227	4,47
388,589	4,45
388,95	4,47
389,312	4,47
389,673	4,47
390,035	4,46
390,396	4,48
390,758	4,51
391,119	4,53
391,48	4,54
391,842	4,53
392,203	4,54
392,564	4,55
392,925	4,6
393,286	4,63
393,648	4,64
394,009	4,67
394,37	4,7
394,731	4,76
395,092	4,79
395,452	4,84
395,813	4,89
396,174	4,92
396,535	4,93
396,896	4,95
397,257	4,98
397,617	5,03
397,978	5,04
398,338	5,04
398,699	5,09
399,06	5,15
399,42	5,18
399,781	5,19
400,141	5,22
400,501	5,21
400,862	5,21
401,222	5,25
401,582	5,26
401,943	5,28
402,303	5,28
402,663	5,3
403,023	5,29
403,383	5,3
403,743	5,29
404,103	5,3
404,463	5,31
404,823	5,32
405,183	5,33
405,543	5,37
405,903	5,39
406,262	5,38
406,622	5,33
406,982	5,33
407,342	5,33
407,701	5,33
408,061	5,36
408,42	5,38
408,78	5,39
409,139	5,4
409,499	5,4
409,858	5,39
410,217	5,39
410,577	5,42
410,936	5,43
411,295	5,43
411,655	5,43
412,014	5,43
412,373	5,4
412,732	5,36
413,091	5,31
413,45	5,27
413,809	5,23
414,168	5,21
414,527	5,18
414,886	5,14
415,245	5,12
415,603	5,08
415,962	5,05
416,321	5,01
416,679	4,97
417,038	4,93
417,397	4,89
417,755	4,84
418,114	4,81
418,472	4,78
418,831	4,78
419,189	4,77
419,547	4,74
419,906	4,73
420,264	4,72
420,622	4,7
420,981	4,69
421,339	4,69
421,697	4,7
422,055	4,71
422,413	4,72
422,771	4,74
423,129	4,77
423,487	4,77
423,845	4,79
424,203	4,82
424,56	4,86
424,918	4,9
425,276	4,95
425,634	4,98
425,991	5,01
426,349	5,04
426,707	5,06
427,064	5,11
427,422	5,14
427,779	5,19
428,137	5,26
428,494	5,32
428,851	5,33
429,209	5,36
429,566	5,36
429,923	5,36
430,28	5,34
430,637	5,33
430,995	5,32
431,352	5,31
431,709	5,3
432,066	5,3
432,423	5,31
432,78	5,3
433,137	5,3
433,493	5,29
433,85	5,31
434,207	5,28
434,564	5,26
434,92	5,26
435,277	5,24
435,634	5,23
435,99	5,22
436,347	5,22
436,703	5,24
437,06	5,22
437,416	5,23
437,773	5,23
438,129	5,23
438,485	5,25
438,841	5,27
439,198	5,27
439,554	5,27
439,91	5,26
440,266	5,27
440,622	5,27
440,978	5,28
441,334	5,26
441,69	5,27
442,046	5,27
442,402	5,27
442,758	5,29
443,113	5,29
443,469	5,29
443,825	5,29
444,181	5,29
444,536	5,32
444,892	5,32
445,247	5,34
445,603	5,35
445,958	5,35
446,314	5,37
446,669	5,38
447,025	5,39
447,38	5,4
447,735	5,43
448,09	5,44
448,446	5,46
448,801	5,47
449,156	5,5
449,511	5,52
449,866	5,57
450,221	5,59
450,576	5,62
450,931	5,67
451,286	5,7
451,641	5,74
451,995	5,75
452,35	5,81
452,705	5,82
453,06	5,83
453,414	5,85
453,769	5,85
454,123	5,86
454,478	5,87
454,832	5,89
455,187	5,86
455,541	5,85
455,896	5,85
456,25	5,83
456,604	5,82
456,958	5,81
457,313	5,79
457,667	5,79
458,021	5,8
458,375	5,8
458,729	5,82
459,083	5,83
459,437	5,84
459,791	5,83
460,145	5,85
460,499	5,86
460,852	5,86
461,206	5,85
461,56	5,87
461,914	5,88
462,267	5,88
462,621	5,89
462,974	5,91
463,328	5,91
463,681	5,94
464,035	5,96
464,388	5,99
464,742	6,02
465,095	6,04
465,448	6,05
465,801	6,05
466,155	6,05
466,508	6,06
466,861	6,06
467,214	6,07
467,567	6,06
467,92	6,07
468,273	6,09
468,626	6,09
468,979	6,08
469,332	6,07
469,684	6,08
470,037	6,1
470,39	6,1
470,743	6,12
471,095	6,14
471,448	6,16
471,8	6,18
472,153	6,2
472,505	6,22
472,858	6,23
473,21	6,25
473,562	6,25
473,915	6,25
474,267	6,27
474,619	6,27
474,971	6,26
475,324	6,26
475,676	6,28
476,028	6,31
476,38	6,32
476,732	6,35
477,084	6,36
477,436	6,36
477,787	6,35
478,139	6,35
478,491	6,36
478,843	6,35
479,195	6,34
479,546	6,31
479,898	6,3
480,249	6,27
480,601	6,25
480,952	6,24
481,304	6,23
481,655	6,22
482,007	6,22
482,358	6,22
482,709	6,22
483,061	6,2
483,412	6,2
483,763	6,21
484,114	6,21
484,465	6,22
484,816	6,22
485,167	6,22
485,518	6,23
485,869	6,23
486,22	6,23
486,571	6,24
486,922	6,25
487,272	6,25
487,623	6,28
487,974	6,31
488,324	6,33
488,675	6,35
489,025	6,37
489,376	6,39
489,726	6,41
490,077	6,43
490,427	6,45
490,778	6,48
491,128	6,49
491,478	6,51
491,828	6,54
492,179	6,57
492,529	6,61
492,879	6,65
493,229	6,68
493,579	6,7
493,929	6,72
494,279	6,76
494,629	6,78
494,979	6,81
495,328	6,85
495,678	6,87
496,028	6,92
496,378	6,96
496,727	7
497,077	7,02
497,426	7,05
497,776	7,07
498,125	7,08
498,475	7,12
498,824	7,13
499,174	7,13
499,523	7,14
499,872	7,16
500,221	7,18
500,571	7,19
500,92	7,21
501,269	7,24
501,618	7,25
501,967	7,28
502,316	7,31
502,665	7,31
503,014	7,34
503,363	7,35
503,711	7,36
504,06	7,38
504,409	7,39
504,758	7,4
505,106	7,41
505,455	7,43
505,803	7,42
506,152	7,42
506,5	7,44
506,849	7,45
507,197	7,45
507,546	7,46
507,894	7,5
508,242	7,52
508,59	7,52
508,939	7,53
509,287	7,53
509,635	7,54
509,983	7,57
510,331	7,59
510,679	7,6
511,027	7,63
511,375	7,65
511,723	7,68
512,07	7,71
512,418	7,74
512,766	7,77
513,114	7,82
513,461	7,86
513,809	7,88
514,156	7,9
514,504	7,95
514,851	7,96
515,199	7,97
515,546	7,98
515,893	8
516,241	8,02
516,588	8,05
516,935	8,08
517,282	8,09
517,63	8,12
517,977	8,14
518,324	8,15
518,671	8,16
519,018	8,19
519,365	8,19
519,711	8,21
520,058	8,21
520,405	8,23
520,752	8,23
521,099	8,26
521,445	8,29
521,792	8,31
522,138	8,33
522,485	8,35
522,832	8,38
523,178	8,41
523,524	8,44
523,871	8,46
524,217	8,49
524,563	8,49
524,91	8,48
525,256	8,49
525,602	8,48
525,948	8,49
526,294	8,5
526,64	8,5
526,986	8,51
527,332	8,51
527,678	8,51
528,024	8,53
528,37	8,54
528,716	8,55
529,061	8,55
529,407	8,58
529,753	8,6
530,098	8,61
530,444	8,62
530,789	8,63
531,135	8,63
531,48	8,64
531,826	8,67
532,171	8,69
532,516	8,73
532,862	8,78
533,207	8,8
533,552	8,84
533,897	8,87
534,242	8,9
534,587	8,93
534,932	8,96
535,277	9
535,622	9,01
535,967	9,03
536,312	9,06
536,657	9,08
537,001	9,11
537,346	9,17
537,691	9,22
538,035	9,26
538,38	9,3
538,724	9,33
539,069	9,33
539,413	9,36
539,758	9,38
540,102	9,4
540,446	9,42
540,791	9,43
541,135	9,46
541,479	9,48
541,823	9,5
542,167	9,53
542,512	9,55
542,856	9,57
543,2	9,6
543,543	9,6
543,887	9,62
544,231	9,64
544,575	9,66
544,919	9,68
545,262	9,72
545,606	9,76
545,95	9,8
546,293	9,84
546,637	9,86
546,98	9,9
547,324	9,94
547,667	10,02
548,011	10,07
548,354	10,07
548,697	10,08
549,04	10,13
549,384	10,14
549,727	10,13
550,07	10,15
550,413	10,16
550,756	10,21
551,099	10,24
551,442	10,26
551,785	10,29
552,128	10,33
552,47	10,31
552,813	10,32
553,156	10,34
553,499	10,35
553,841	10,38
554,184	10,38
554,526	10,4
554,869	10,36
555,211	10,35
555,554	10,41
555,896	10,42
556,238	10,42
556,581	10,42
556,923	10,44
557,265	10,44
557,607	10,44
557,949	10,47
558,291	10,5
558,633	10,52
558,975	10,51
559,317	10,52
559,659	10,55
560,001	10,54
560,343	10,56
560,685	10,58
561,026	10,59
561,368	10,61
561,71	10,61
562,051	10,64
562,393	10,7
562,734	10,68
563,076	10,71
563,417	10,72
563,759	10,75
564,1	10,78
564,441	10,82
564,782	10,84
565,124	10,82
565,465	10,85
565,806	10,86
566,147	10,87
566,488	10,87
566,829	10,89
567,17	10,94
567,511	10,96
567,851	10,99
568,192	11,02
568,533	11,03
568,874	11,04
569,214	11,07
569,555	11,05
569,895	11,07
570,236	11,09
570,576	11,1
570,917	11,12
571,257	11,12
571,598	11,13
571,938	11,15
572,278	11,17
572,618	11,16
572,959	11,18
573,299	11,21
573,639	11,22
573,979	11,24
574,319	11,23
574,659	11,23
574,999	11,23
575,339	11,25
575,678	11,27
576,018	11,29
576,358	11,32
576,698	11,32
577,037	11,33
577,377	11,33
577,716	11,36
578,056	11,36
578,395	11,37
578,735	11,39
579,074	11,42
579,413	11,45
579,753	11,48
580,092	11,49
580,431	11,5
580,77	11,55
581,109	11,57
581,448	11,61
581,787	11,63
582,126	11,64
582,465	11,67
582,804	11,67
583,143	11,68
583,482	11,71
583,82	11,76
584,159	11,81
584,498	11,83
584,836	11,86
585,175	11,91
585,514	11,97
585,852	11,98
586,19	12,01
586,529	12,01
586,867	12,05
587,205	12,1
587,544	12,13
587,882	12,15
588,22	12,16
588,558	12,18
588,896	12,23
589,234	12,28
589,572	12,29
589,91	12,33
590,248	12,33
590,586	12,35
590,924	12,39
591,262	12,41
591,599	12,44
591,937	12,46
592,275	12,48
592,612	12,5
592,95	12,55
593,287	12,63
593,625	12,69
593,962	12,74
594,299	12,77
594,637	12,83
594,974	12,89
595,311	12,93
595,648	12,97
595,985	13
596,322	13,01
596,659	13,08
596,996	13,12
597,333	13,16
597,67	13,18
598,007	13,2
598,344	13,25
598,681	13,29
599,017	13,33
599,354	13,39
599,691	13,43
600,027	13,47
600,364	13,49
600,7	13,55
601,037	13,61
601,373	13,67
601,71	13,71
602,046	13,75
602,382	13,79
602,718	13,85
603,054	13,89
603,391	13,93
603,727	13,93
604,063	13,95
604,399	13,97
604,735	14,01
605,071	14,05
605,406	14,05
605,742	14,09
606,078	14,13
606,414	14,18
606,749	14,22
607,085	14,23
607,421	14,25
607,756	14,26
608,092	14,27
608,427	14,27
608,762	14,28
609,098	14,32
609,433	14,33
609,768	14,34
610,104	14,35
610,439	14,37
610,774	14,4
611,109	14,4
611,444	14,44
611,779	14,41
612,114	14,42
612,449	14,45
612,784	14,42
613,118	14,41
613,453	14,39
613,788	14,39
614,123	14,37
614,457	14,42
614,792	14,43
615,126	14,43
615,461	14,47
615,795	14,51
616,13	14,53
616,464	14,54
616,798	14,54
617,132	14,52
617,467	14,51
617,801	14,53
618,135	14,59
618,469	14,6
618,803	14,7
619,137	14,73
619,471	14,77
619,805	14,82
620,139	14,87
620,472	14,9
620,806	14,94
621,14	15,02
621,473	14,99
621,807	15,02
622,141	15,06
622,474	15,08
622,808	15,09
623,141	15,1
623,474	15,17
623,808	15,24
624,141	15,3
624,474	15,39
624,807	15,45
625,141	15,49
625,474	15,56
625,807	15,57
626,14	15,62
626,473	15,68
626,806	15,71
627,138	15,75
627,471	15,77
627,804	15,8
628,137	15,83
628,469	15,89
628,802	15,9
629,135	15,91
629,467	15,92
629,8	15,94
630,132	15,95
630,465	15,99
630,797	16
631,129	16,04
631,461	16,08
631,794	16,11
632,126	16,11
632,458	16,1
632,79	16,16
633,122	16,16
633,454	16,18
633,786	16,18
634,118	16,19
634,45	16,23
634,781	16,29
635,113	16,29
635,445	16,33
635,777	16,4
636,108	16,45
636,44	16,5
636,771	16,57
637,103	16,59
637,434	16,6
637,765	16,65
638,097	16,68
638,428	16,67
638,759	16,69
639,09	16,74
639,422	16,77
639,753	16,79
640,084	16,82
640,415	16,84
640,746	16,91
641,077	16,92
641,407	16,96
641,738	17
642,069	17,07
642,4	17,1
642,73	17,1
643,061	17,13
643,392	17,14
643,722	17,15
644,053	17,19
644,383	17,18
644,713	17,2
645,044	17,21
645,374	17,23
645,704	17,24
646,034	17,27
646,365	17,28
646,695	17,28
647,025	17,33
647,355	17,38
647,685	17,44
648,015	17,52
648,344	17,55
648,674	17,52
649,004	17,54
649,334	17,55
649,663	17,61
649,993	17,64
650,323	17,73
650,652	17,77
650,982	17,83
651,311	17,87
651,64	17,84
651,97	17,93
652,299	18,01
652,628	18,09
652,958	18,11
653,287	18,19
653,616	18,24
653,945	18,26
654,274	18,26
654,603	18,27
654,932	18,28
655,261	18,31
655,589	18,4
655,918	18,43
656,247	18,49
656,576	18,51
