Data from zc74042_4_Reflection_00005.txt Node
Date: Thu Mar 12 14:51:35 ART 2020
User: Ana
Spectrometer: USB2E3644
Trigger mode: 4
Integration Time (sec): 5,000000E-2
Scans to average: 10
Electric dark correction enabled: true
Nonlinearity correction enabled: false
Boxcar width: 10
XAxis mode: Wavelengths
Number of Pixels in Spectrum: 2048
>>>>>Begin Spectral Data<<<<<
178,315	90,2
178,696	90,87
179,076	92,1
179,457	96,59
179,838	83,84
180,218	71,28
180,599	97,44
180,979	100
181,36	78,29
181,74	128,11
182,121	136,81
182,501	133,92
182,881	119,26
183,262	115,25
183,642	115,19
184,022	115,34
184,402	119,22
184,783	119,19
185,163	116,89
185,543	114,9
185,923	113,28
186,303	115,42
186,683	116,23
187,063	115,95
187,443	114,87
187,823	111,45
188,203	110,81
188,583	113,26
188,963	117,75
189,343	120,78
189,723	118,26
190,102	117,1
190,482	119,85
190,862	121,86
191,242	121,63
191,621	119,11
192,001	118,19
192,38	115,77
192,76	115,24
193,14	115,98
193,519	115,07
193,898	113,57
194,278	112,82
194,657	111,99
195,037	112,58
195,416	114,59
195,795	115,68
196,175	115,16
196,554	114,11
196,933	111,62
197,312	110,39
197,692	109,95
198,071	108,88
198,45	107,47
198,829	107,73
199,208	108,48
199,587	109,3
199,966	109,29
200,345	109,26
200,724	109,03
201,103	109,14
201,482	109,99
201,86	112,23
202,239	113,59
202,618	114,64
202,997	114,48
203,375	112,78
203,754	112,48
204,133	112,8
204,511	112,46
204,89	111,12
205,269	110,22
205,647	110,85
206,026	111,83
206,404	112,77
206,782	112,73
207,161	112,33
207,539	111,73
207,918	111,62
208,296	110,79
208,674	110,56
209,052	110,3
209,431	109,65
209,809	107,52
210,187	104,92
210,565	103,52
210,943	104,27
211,321	106,7
211,699	108,59
212,077	109,19
212,455	109,89
212,833	110,94
213,211	111,76
213,589	112,08
213,967	112,36
214,345	112,02
214,722	111,99
215,1	112,14
215,478	112,18
215,855	112,1
216,233	113,53
216,611	115,49
216,988	117,96
217,366	120,17
217,743	123,29
218,121	127,4
218,498	129,74
218,876	129,29
219,253	127,21
219,631	125,92
220,008	126,42
220,385	127,34
220,762	128,14
221,14	130,36
221,517	130,83
221,894	129,82
222,271	131,14
222,648	133,28
223,025	134,34
223,402	136,03
223,78	137,2
224,157	138,42
224,533	137,93
224,91	137,43
225,287	138,63
225,664	140,5
226,041	143,32
226,418	146,46
226,795	148,41
227,171	151,76
227,548	154,89
227,925	157,11
228,301	160,38
228,678	162,48
229,055	161,29
229,431	162,95
229,808	168,29
230,184	172,65
230,561	175,17
230,937	179,52
231,313	182,86
231,69	186,33
232,066	185,73
232,442	186,46
232,819	189,83
233,195	189,07
233,571	189,61
233,947	190,1
234,323	189,72
234,699	194,5
235,075	197,66
235,451	200,9
235,827	204,39
236,203	205,22
236,579	210,19
236,955	221,63
237,331	233,41
237,707	248,38
238,083	274,91
238,459	323,43
238,834	407,71
239,21	579,14
239,586	920,24
239,961	1873,94
240,337	5759,26
240,713	-11451,85
241,088	-3205,21
241,464	-2349,24
241,839	-1774,01
242,215	-1069,36
242,59	-622,61
242,965	-342,15
243,341	-202,8
243,716	-136,82
244,091	-108,91
244,467	-94,85
244,842	-86,36
245,217	-79,6
245,592	-75,1
245,967	-74,66
246,343	-74,67
246,718	-74,79
247,093	-77,3
247,468	-78,88
247,843	-78,37
248,218	-75,37
248,593	-70,77
248,967	-65,41
249,342	-61,9
249,717	-59,84
250,092	-59,1
250,467	-60,51
250,841	-65,9
251,216	-75,99
251,591	-91,6
251,965	-105,77
252,34	-115,43
252,714	-126,09
253,089	-134,1
253,463	-141,14
253,838	-139,87
254,212	-134,02
254,587	-125,47
254,961	-109,16
255,335	-93,57
255,71	-77,76
256,084	-61,26
256,458	-49,31
256,832	-41,93
257,206	-38,22
257,581	-36,26
257,955	-34,73
258,329	-33,06
258,703	-30,97
259,077	-29,41
259,451	-28,16
259,825	-27,85
260,199	-28,2
260,572	-27,85
260,946	-27,79
261,32	-27,55
261,694	-26,95
262,068	-26,86
262,441	-26,86
262,815	-27,13
263,189	-26,99
263,562	-27,63
263,936	-30,17
264,309	-34,04
264,683	-37,64
265,056	-39,11
265,43	-39,46
265,803	-39,16
266,176	-38,52
266,55	-38,3
266,923	-37,57
267,296	-36,41
267,67	-34,23
268,043	-32,41
268,416	-30,31
268,789	-28,32
269,162	-26,5
269,535	-25,07
269,908	-23,8
270,281	-22,96
270,654	-22,73
271,027	-23,31
271,4	-23,56
271,773	-23,19
272,146	-22,96
272,519	-23,22
272,891	-23,48
273,264	-23,68
273,637	-23,93
274,01	-24,11
274,382	-24,68
274,755	-25,12
275,127	-25,46
275,5	-25,73
275,872	-25,51
276,245	-25,54
276,617	-26,15
276,99	-26,62
277,362	-27,32
277,734	-27,55
278,107	-27,56
278,479	-27,29
278,851	-26,79
279,223	-26,34
279,596	-26,07
279,968	-25,9
280,34	-25,25
280,712	-24,34
281,084	-23,18
281,456	-22,07
281,828	-20,82
282,2	-19,24
282,572	-18,06
282,944	-17,07
283,315	-16,62
283,687	-16,25
284,059	-16,15
284,431	-15,85
284,802	-15,53
285,174	-15,14
285,546	-14,81
285,917	-14,11
286,289	-13,66
286,66	-13,33
287,032	-12,91
287,403	-12,71
287,775	-12,65
288,146	-12,92
288,518	-13,36
288,889	-13,48
289,26	-13,52
289,632	-13,79
290,003	-14,16
290,374	-14,34
290,745	-14,51
291,116	-14,58
291,487	-14,73
291,858	-14,68
292,229	-14,61
292,6	-14,28
292,971	-13,51
293,342	-12,76
293,713	-12,33
294,084	-11,85
294,455	-11,23
294,826	-10,91
295,196	-10,7
295,567	-10,55
295,938	-10,13
296,308	-9,67
296,679	-9,28
297,05	-8,95
297,42	-8,75
297,791	-8,48
298,161	-8,34
298,532	-8,05
298,902	-7,78
299,272	-7,51
299,643	-7,31
300,013	-6,96
300,383	-6,78
300,754	-6,96
301,124	-7,19
301,494	-7,41
301,864	-7,59
302,234	-7,84
302,604	-7,92
302,974	-7,78
303,344	-7,44
303,714	-7,11
304,084	-6,83
304,454	-6,83
304,824	-6,88
305,194	-6,87
305,563	-6,8
305,933	-6,53
306,303	-6,35
306,673	-6,1
307,042	-5,78
307,412	-5,31
307,781	-4,72
308,151	-4,34
308,521	-4,08
308,89	-3,82
309,259	-3,76
309,629	-3,7
309,998	-3,54
310,368	-3,41
310,737	-3,19
311,106	-3,07
311,475	-2,91
311,845	-2,82
312,214	-2,65
312,583	-2,44
312,952	-2,27
313,321	-2,07
313,69	-1,74
314,059	-1,43
314,428	-1,25
314,797	-1,24
315,166	-1,46
315,535	-1,79
315,904	-2,02
316,272	-2,1
316,641	-2,23
317,01	-2,07
317,379	-1,83
317,747	-1,59
318,116	-1,37
318,484	-1,35
318,853	-1,25
319,221	-1,3
319,59	-1,34
319,958	-1,24
320,327	-1,11
320,695	-0,94
321,063	-0,76
321,432	-0,72
321,8	-0,68
322,168	-0,65
322,536	-0,62
322,905	-0,21
323,273	0,16
323,641	0,48
324,009	0,72
324,377	0,84
324,745	0,91
325,113	1,04
325,481	1,21
325,849	1,34
326,216	1,57
326,584	1,81
326,952	2,07
327,32	2,42
327,687	2,58
328,055	2,73
328,423	2,92
328,79	3,02
329,158	3,13
329,525	3,14
329,893	3,28
330,26	3,51
330,628	3,55
330,995	3,55
331,362	3,5
331,73	3,4
332,097	3,5
332,464	3,72
332,831	3,87
333,199	3,94
333,566	4,14
333,933	4,28
334,3	4,33
334,667	4,32
335,034	4,28
335,401	4,32
335,768	4,4
336,135	4,46
336,502	4,52
336,868	4,57
337,235	4,72
337,602	4,82
337,969	4,95
338,335	5
338,702	5,08
339,069	5,17
339,435	5,29
339,802	5,43
340,168	5,48
340,535	5,57
340,901	5,57
341,267	5,54
341,634	5,6
342	5,69
342,366	5,81
342,733	5,85
343,099	5,93
343,465	5,96
343,831	5,97
344,197	6,07
344,563	6,18
344,929	6,25
345,295	6,45
345,661	6,63
346,027	6,82
346,393	6,98
346,759	7,15
347,125	7,31
347,491	7,43
347,856	7,56
348,222	7,57
348,588	7,71
348,953	7,83
349,319	7,86
349,684	7,96
350,05	8,04
350,415	8,2
350,781	8,3
351,146	8,43
351,512	8,59
351,877	8,63
352,242	8,57
352,608	8,52
352,973	8,46
353,338	8,45
353,703	8,46
354,068	8,45
354,433	8,51
354,798	8,54
355,164	8,65
355,528	8,73
355,893	8,8
356,258	8,83
356,623	8,89
356,988	9,03
357,353	9,14
357,718	9,17
358,082	9,27
358,447	9,38
358,812	9,47
359,176	9,52
359,541	9,6
359,905	9,76
360,27	9,9
360,634	9,99
360,999	10,05
361,363	10,11
361,728	10,21
362,092	10,32
362,456	10,4
362,821	10,44
363,185	10,49
363,549	10,57
363,913	10,64
364,277	10,68
364,641	10,62
365,005	10,66
365,369	10,81
365,733	10,86
366,097	10,9
366,461	11,01
366,825	11,14
367,189	11,26
367,553	11,35
367,916	11,48
368,28	11,62
368,644	11,75
369,007	11,92
369,371	12,06
369,734	12,1
370,098	12,18
370,461	12,28
370,825	12,37
371,188	12,43
371,552	12,54
371,915	12,66
372,278	12,87
372,642	12,98
373,005	13,09
373,368	13,19
373,731	13,32
374,094	13,41
374,457	13,42
374,82	13,49
375,183	13,56
375,546	13,62
375,909	13,67
376,272	13,74
376,635	13,8
376,998	13,85
377,361	13,95
377,723	14
378,086	14,05
378,449	14,15
378,811	14,27
379,174	14,34
379,537	14,41
379,899	14,43
380,262	14,48
380,624	14,52
380,987	14,58
381,349	14,63
381,711	14,68
382,074	14,81
382,436	14,91
382,798	15,07
383,16	15,12
383,522	15,18
383,884	15,22
384,247	15,23
384,609	15,27
384,971	15,31
385,333	15,38
385,695	15,39
386,056	15,39
386,418	15,4
386,78	15,42
387,142	15,42
387,504	15,43
387,865	15,48
388,227	15,5
388,589	15,52
388,95	15,58
389,312	15,54
389,673	15,51
390,035	15,49
390,396	15,44
390,758	15,46
391,119	15,46
391,48	15,48
391,842	15,51
392,203	15,57
392,564	15,59
392,925	15,63
393,286	15,69
393,648	15,74
394,009	15,79
394,37	15,83
394,731	15,9
395,092	15,95
395,452	15,98
395,813	16
396,174	16,02
396,535	16,04
396,896	16,07
397,257	16,13
397,617	16,18
397,978	16,21
398,338	16,22
398,699	16,27
399,06	16,36
399,42	16,36
399,781	16,35
400,141	16,35
400,501	16,36
400,862	16,37
401,222	16,37
401,582	16,38
401,943	16,38
402,303	16,37
402,663	16,38
403,023	16,35
403,383	16,36
403,743	16,4
404,103	16,41
404,463	16,45
404,823	16,5
405,183	16,52
405,543	16,54
405,903	16,58
406,262	16,6
406,622	16,57
406,982	16,58
407,342	16,61
407,701	16,62
408,061	16,65
408,42	16,64
408,78	16,66
409,139	16,69
409,499	16,71
409,858	16,74
410,217	16,78
410,577	16,82
410,936	16,85
411,295	16,86
411,655	16,84
412,014	16,84
412,373	16,82
412,732	16,79
413,091	16,77
413,45	16,77
413,809	16,79
414,168	16,77
414,527	16,76
414,886	16,73
415,245	16,76
415,603	16,72
415,962	16,72
416,321	16,71
416,679	16,69
417,038	16,65
417,397	16,62
417,755	16,6
418,114	16,56
418,472	16,53
418,831	16,53
419,189	16,53
419,547	16,51
419,906	16,51
420,264	16,48
420,622	16,47
420,981	16,45
421,339	16,42
421,697	16,41
422,055	16,42
422,413	16,43
422,771	16,42
423,129	16,46
423,487	16,47
423,845	16,49
424,203	16,5
424,56	16,53
424,918	16,56
425,276	16,59
425,634	16,63
425,991	16,69
426,349	16,73
426,707	16,74
427,064	16,79
427,422	16,83
427,779	16,9
428,137	16,98
428,494	17,07
428,851	17,13
429,209	17,18
429,566	17,22
429,923	17,24
430,28	17,26
430,637	17,29
430,995	17,29
431,352	17,28
431,709	17,29
432,066	17,3
432,423	17,29
432,78	17,27
433,137	17,29
433,493	17,28
433,85	17,3
434,207	17,3
434,564	17,28
434,92	17,3
435,277	17,29
435,634	17,27
435,99	17,24
436,347	17,23
436,703	17,24
437,06	17,22
437,416	17,22
437,773	17,19
438,129	17,15
438,485	17,18
438,841	17,16
439,198	17,18
439,554	17,16
439,91	17,17
440,266	17,2
440,622	17,2
440,978	17,19
441,334	17,15
441,69	17,14
442,046	17,14
442,402	17,11
442,758	17,11
443,113	17,1
443,469	17,1
443,825	17,11
444,181	17,1
444,536	17,13
444,892	17,15
445,247	17,19
445,603	17,21
445,958	17,19
446,314	17,23
446,669	17,23
447,025	17,25
447,38	17,26
447,735	17,26
448,09	17,26
448,446	17,28
448,801	17,31
449,156	17,35
449,511	17,36
449,866	17,4
450,221	17,44
450,576	17,5
450,931	17,53
451,286	17,58
451,641	17,64
451,995	17,67
452,35	17,72
452,705	17,72
453,06	17,74
453,414	17,75
453,769	17,76
454,123	17,78
454,478	17,8
454,832	17,82
455,187	17,84
455,541	17,8
455,896	17,77
456,25	17,75
456,604	17,73
456,958	17,74
457,313	17,73
457,667	17,71
458,021	17,7
458,375	17,71
458,729	17,73
459,083	17,73
459,437	17,72
459,791	17,7
460,145	17,72
460,499	17,72
460,852	17,72
461,206	17,73
461,56	17,74
461,914	17,75
462,267	17,74
462,621	17,73
462,974	17,76
463,328	17,81
463,681	17,84
464,035	17,85
464,388	17,88
464,742	17,89
465,095	17,92
465,448	17,94
465,801	17,91
466,155	17,89
466,508	17,88
466,861	17,9
467,214	17,91
467,567	17,89
467,92	17,92
468,273	17,94
468,626	17,96
468,979	17,94
469,332	17,95
469,684	17,95
470,037	17,96
470,39	17,99
470,743	18
471,095	17,99
471,448	18,01
471,8	17,99
472,153	18,03
472,505	18,03
472,858	18,05
473,21	18,1
473,562	18,13
473,915	18,15
474,267	18,13
474,619	18,13
474,971	18,16
475,324	18,14
475,676	18,15
476,028	18,14
476,38	18,15
476,732	18,15
477,084	18,15
477,436	18,14
477,787	18,13
478,139	18,11
478,491	18,12
478,843	18,1
479,195	18,09
479,546	18,01
479,898	18
480,249	17,97
480,601	17,96
480,952	17,95
481,304	17,95
481,655	17,98
482,007	17,97
482,358	17,98
482,709	17,98
483,061	17,97
483,412	17,96
483,763	17,95
484,114	17,95
484,465	17,94
484,816	17,95
485,167	17,95
485,518	17,97
485,869	17,98
486,22	17,99
486,571	18
486,922	18,04
487,272	18,04
487,623	18,05
487,974	18,05
488,324	18,04
488,675	18,05
489,025	18,04
489,376	18,05
489,726	18,05
490,077	18,06
490,427	18,08
490,778	18,1
491,128	18,13
491,478	18,16
491,828	18,19
492,179	18,23
492,529	18,24
492,879	18,23
493,229	18,24
493,579	18,22
493,929	18,23
494,279	18,25
494,629	18,28
494,979	18,31
495,328	18,34
495,678	18,39
496,028	18,4
496,378	18,42
496,727	18,43
497,077	18,42
497,426	18,43
497,776	18,44
498,125	18,46
498,475	18,45
498,824	18,46
499,174	18,46
499,523	18,45
499,872	18,47
500,221	18,49
500,571	18,5
500,92	18,53
501,269	18,54
501,618	18,52
501,967	18,52
502,316	18,55
502,665	18,56
503,014	18,58
503,363	18,59
503,711	18,58
504,06	18,58
504,409	18,59
504,758	18,58
505,106	18,56
505,455	18,57
505,803	18,55
506,152	18,53
506,5	18,53
506,849	18,52
507,197	18,52
507,546	18,51
507,894	18,52
508,242	18,51
508,59	18,5
508,939	18,5
509,287	18,51
509,635	18,52
509,983	18,54
510,331	18,53
510,679	18,54
511,027	18,56
511,375	18,59
511,723	18,61
512,07	18,64
512,418	18,64
512,766	18,65
513,114	18,66
513,461	18,7
513,809	18,7
514,156	18,71
514,504	18,71
514,851	18,72
515,199	18,72
515,546	18,72
515,893	18,74
516,241	18,75
516,588	18,75
516,935	18,75
517,282	18,77
517,63	18,78
517,977	18,79
518,324	18,8
518,671	18,8
519,018	18,8
519,365	18,79
519,711	18,79
520,058	18,81
520,405	18,82
520,752	18,83
521,099	18,85
521,445	18,85
521,792	18,87
522,138	18,86
522,485	18,86
522,832	18,89
523,178	18,91
523,524	18,89
523,871	18,88
524,217	18,86
524,563	18,85
524,91	18,81
525,256	18,78
525,602	18,76
525,948	18,78
526,294	18,8
526,64	18,82
526,986	18,83
527,332	18,84
527,678	18,83
528,024	18,84
528,37	18,85
528,716	18,84
529,061	18,84
529,407	18,84
529,753	18,84
530,098	18,84
530,444	18,83
530,789	18,85
531,135	18,86
531,48	18,88
531,826	18,89
532,171	18,91
532,516	18,94
532,862	18,96
533,207	18,96
533,552	18,95
533,897	18,95
534,242	18,94
534,587	18,94
534,932	18,96
535,277	18,95
535,622	18,95
535,967	18,96
536,312	18,97
536,657	19
537,001	19,02
537,346	19,02
537,691	19,02
538,035	19,01
538,38	19
538,724	18,99
539,069	19
539,413	19,01
539,758	19,01
540,102	19,02
540,446	19
540,791	19,01
541,135	19,01
541,479	19,01
541,823	19,01
542,167	19
542,512	19,02
542,856	19,02
543,2	19,02
543,543	19,01
543,887	19,01
544,231	19,02
544,575	19,03
544,919	19,05
545,262	19,06
545,606	19,09
545,95	19,11
546,293	19,1
546,637	19,09
546,98	19,11
547,324	19,13
547,667	19,18
548,011	19,18
548,354	19,18
548,697	19,17
549,04	19,19
549,384	19,2
549,727	19,17
550,07	19,16
550,413	19,17
550,756	19,18
551,099	19,21
551,442	19,21
551,785	19,22
552,128	19,22
552,47	19,23
552,813	19,21
553,156	19,2
553,499	19,19
553,841	19,19
554,184	19,16
554,526	19,13
554,869	19,1
555,211	19,11
555,554	19,12
555,896	19,12
556,238	19,08
556,581	19,05
556,923	19,05
557,265	19,06
557,607	19,04
557,949	19,01
558,291	18,98
558,633	18,95
558,975	18,92
559,317	18,9
559,659	18,87
560,001	18,85
560,343	18,82
560,685	18,8
561,026	18,8
561,368	18,81
561,71	18,8
562,051	18,78
562,393	18,77
562,734	18,74
563,076	18,74
563,417	18,75
563,759	18,74
564,1	18,73
564,441	18,74
564,782	18,74
565,124	18,73
565,465	18,72
565,806	18,69
566,147	18,69
566,488	18,66
566,829	18,67
567,17	18,66
567,511	18,65
567,851	18,68
568,192	18,67
568,533	18,64
568,874	18,62
569,214	18,59
569,555	18,55
569,895	18,57
570,236	18,55
570,576	18,52
570,917	18,52
571,257	18,51
571,598	18,47
571,938	18,46
572,278	18,44
572,618	18,41
572,959	18,44
573,299	18,42
573,639	18,44
573,979	18,43
574,319	18,43
574,659	18,41
574,999	18,39
575,339	18,39
575,678	18,38
576,018	18,35
576,358	18,38
576,698	18,36
577,037	18,32
577,377	18,3
577,716	18,29
578,056	18,3
578,395	18,27
578,735	18,27
579,074	18,26
579,413	18,24
579,753	18,25
580,092	18,19
580,431	18,19
580,77	18,19
581,109	18,15
581,448	18,11
581,787	18,12
582,126	18,08
582,465	18,02
582,804	17,99
583,143	18,01
583,482	17,95
583,82	17,96
584,159	17,93
584,498	17,93
584,836	17,94
585,175	17,93
585,514	17,95
585,852	17,94
586,19	17,92
586,529	17,92
586,867	17,91
587,205	17,91
587,544	17,92
587,882	17,91
588,22	17,93
588,558	17,94
588,896	17,93
589,234	17,95
589,572	17,95
589,91	17,96
590,248	17,97
590,586	17,97
590,924	18,01
591,262	18,03
591,599	18,03
591,937	18,03
592,275	18,01
592,612	17,98
592,95	17,99
593,287	18,04
593,625	18,07
593,962	18,08
594,299	18,08
594,637	18,1
594,974	18,15
595,311	18,19
595,648	18,2
595,985	18,21
596,322	18,23
596,659	18,27
596,996	18,29
597,333	18,25
597,67	18,27
598,007	18,24
598,344	18,24
598,681	18,27
599,017	18,27
599,354	18,29
599,691	18,31
600,027	18,34
600,364	18,31
600,7	18,3
601,037	18,36
601,373	18,42
601,71	18,41
602,046	18,44
602,382	18,41
602,718	18,44
603,054	18,46
603,391	18,46
603,727	18,47
604,063	18,47
604,399	18,51
604,735	18,51
605,071	18,52
605,406	18,51
605,742	18,5
606,078	18,53
606,414	18,55
606,749	18,55
607,085	18,55
607,421	18,57
607,756	18,59
608,092	18,55
608,427	18,52
608,762	18,5
609,098	18,46
609,433	18,44
609,768	18,4
610,104	18,37
610,439	18,35
610,774	18,33
611,109	18,33
611,444	18,3
611,779	18,27
612,114	18,27
612,449	18,27
612,784	18,23
613,118	18,18
613,453	18,12
613,788	18,06
614,123	18,02
614,457	17,96
614,792	17,91
615,126	17,88
615,461	17,86
615,795	17,87
616,13	17,8
616,464	17,79
616,798	17,74
617,132	17,72
617,467	17,71
617,801	17,71
618,135	17,66
618,469	17,65
618,803	17,67
619,137	17,68
619,471	17,69
619,805	17,68
620,139	17,69
620,472	17,7
620,806	17,74
621,14	17,72
621,473	17,75
621,807	17,73
622,141	17,73
622,474	17,77
622,808	17,79
623,141	17,82
623,474	17,82
623,808	17,88
624,141	17,94
624,474	17,99
624,807	17,99
625,141	18,05
625,474	18,11
625,807	18,14
626,14	18,14
626,473	18,17
626,806	18,2
627,138	18,21
627,471	18,19
627,804	18,2
628,137	18,21
628,469	18,18
628,802	18,2
629,135	18,2
629,467	18,18
629,8	18,15
630,132	18,2
630,465	18,23
630,797	18,22
631,129	18,19
631,461	18,2
631,794	18,21
632,126	18,17
632,458	18,14
632,79	18,11
633,122	18,14
633,454	18,11
633,786	18,11
634,118	18,1
634,45	18,13
634,781	18,1
635,113	18,11
635,445	18,11
635,777	18,12
636,108	18,13
636,44	18,13
636,771	18,13
637,103	18,07
637,434	18,05
637,765	18,04
638,097	18,04
638,428	17,99
638,759	17,95
639,09	17,97
639,422	17,98
639,753	18
640,084	17,95
640,415	17,94
640,746	17,95
641,077	17,95
641,407	17,97
641,738	17,99
642,069	17,97
642,4	17,99
642,73	17,99
643,061	17,99
643,392	18,02
643,722	18,01
644,053	18,05
644,383	18,03
644,713	18,02
645,044	18,04
645,374	18,08
645,704	18,12
646,034	18,14
646,365	18,14
646,695	18,15
