Data from zc74019_4_Reflection_00001.txt Node
Date: Thu Mar 12 14:43:22 ART 2020
User: Ana
Spectrometer: USB2E3644
Trigger mode: 4
Integration Time (sec): 5,000000E-2
Scans to average: 10
Electric dark correction enabled: true
Nonlinearity correction enabled: false
Boxcar width: 10
XAxis mode: Wavelengths
Number of Pixels in Spectrum: 2048
>>>>>Begin Spectral Data<<<<<
178,315	94,66
178,696	76,13
179,076	57,65
179,457	57,04
179,838	69,92
180,218	100,53
180,599	111,11
180,979	120,69
181,36	171,11
181,74	179,37
182,121	164,1
182,501	155,97
182,881	155,71
183,262	141,42
183,642	131,57
184,022	129,98
184,402	128,79
184,783	128,91
185,163	125,73
185,543	127,1
185,923	128,39
186,303	125,7
186,683	120,02
187,063	117,06
187,443	120,29
187,823	127,74
188,203	136,8
188,583	140,15
188,963	137,55
189,343	134,39
189,723	132,43
190,102	131,94
190,482	129,89
190,862	128,83
191,242	129,81
191,621	132,16
192,001	131,93
192,38	132,79
192,76	129,47
193,14	126,54
193,519	125,87
193,898	127,18
194,278	128,39
194,657	127,96
195,037	126,16
195,416	123,24
195,795	122,38
196,175	123,08
196,554	123,77
196,933	124,85
197,312	125,87
197,692	125,77
198,071	125,52
198,45	125,42
198,829	127,41
199,208	128,64
199,587	127,84
199,966	126,11
200,345	123,93
200,724	124,96
201,103	126,44
201,482	125,58
201,86	123
202,239	120,84
202,618	119,78
202,997	119,55
203,375	119,17
203,754	118,49
204,133	116,67
204,511	113,46
204,89	113,03
205,269	113,79
205,647	113,97
206,026	114,45
206,404	116,46
206,782	116,81
207,161	116,65
207,539	116,17
207,918	116,36
208,296	116,56
208,674	116,95
209,052	117,12
209,431	117,99
209,809	120,23
210,187	122,45
210,565	124,47
210,943	125,73
211,321	127,09
211,699	127,62
212,077	127,02
212,455	127,91
212,833	128,9
213,211	126,72
213,589	127,35
213,967	127,5
214,345	124,47
214,722	119,4
215,1	117,53
215,478	117,62
215,855	118,02
216,233	118,09
216,611	114,78
216,988	111,62
217,366	110,35
217,743	110,24
218,121	109,98
218,498	109,01
218,876	107,34
219,253	106,9
219,631	106,53
220,008	106,14
220,385	106,61
220,762	105,19
221,14	104,95
221,517	102,9
221,894	102,05
222,271	104,54
222,648	108,84
223,025	111,98
223,402	113,61
223,78	114,8
224,157	116,39
224,533	120,8
224,91	128,8
225,287	135,86
225,664	141,26
226,041	145,78
226,418	150,89
226,795	156,56
227,171	164,34
227,548	169,7
227,925	172,56
228,301	176,58
228,678	180,07
229,055	181,32
229,431	187,08
229,808	191,52
230,184	191,67
230,561	196,43
230,937	204,43
231,313	214,06
231,69	217,36
232,066	220,08
232,442	213,64
232,819	205,89
233,195	200,91
233,571	199,67
233,947	196,08
234,323	195,59
234,699	198,22
235,075	197,49
235,451	200,41
235,827	205,75
236,203	214,99
236,579	228,64
236,955	247,3
237,331	267,32
237,707	304,01
238,083	371,94
238,459	489,43
238,834	867,38
239,21	5317,78
239,586	-1219,49
239,961	-706,78
240,337	-504,85
240,713	-430,42
241,088	-396,3
241,464	-371,21
241,839	-342,23
242,215	-289,71
242,59	-230,13
242,965	-163,13
243,341	-114,63
243,716	-84,48
244,091	-70,17
244,467	-62,23
244,842	-56,35
245,217	-52,7
245,592	-51,37
245,967	-52,41
246,343	-52,49
246,718	-52,33
247,093	-53,41
247,468	-54,14
247,843	-52,68
248,218	-50,12
248,593	-46,73
248,967	-43,32
249,342	-41,59
249,717	-40,76
250,092	-40,34
250,467	-41
250,841	-43,78
251,216	-49,47
251,591	-57,82
251,965	-65,09
252,34	-70,13
252,714	-75,9
253,089	-78,2
253,463	-79,01
253,838	-76,89
254,212	-73,49
254,587	-70,32
254,961	-63,82
255,335	-56,25
255,71	-48,34
256,084	-39,59
256,458	-33,45
256,832	-29,06
257,206	-26,68
257,581	-25,16
257,955	-24,05
258,329	-22,84
258,703	-21,41
259,077	-20,2
259,451	-19,14
259,825	-18,64
260,199	-18,63
260,572	-18,52
260,946	-18,7
261,32	-18,61
261,694	-18,17
262,068	-18,11
262,441	-18,06
262,815	-18,28
263,189	-18,15
263,562	-18,38
263,936	-19,86
264,309	-21,94
264,683	-24,12
265,056	-24,75
265,43	-24,72
265,803	-24,71
266,176	-24,59
266,55	-24,56
266,923	-24,5
267,296	-24,08
267,67	-22,96
268,043	-21,95
268,416	-20,66
268,789	-19,48
269,162	-18,28
269,535	-17,17
269,908	-16,4
270,281	-15,91
270,654	-15,93
271,027	-16,38
271,4	-16,62
271,773	-16,51
272,146	-16,33
272,519	-16,14
272,891	-16,22
273,264	-16,27
273,637	-16,09
274,01	-15,83
274,382	-16,26
274,755	-16,5
275,127	-16,67
275,5	-16,95
275,872	-17,09
276,245	-17,4
276,617	-17,89
276,99	-18,41
277,362	-18,98
277,734	-19,15
278,107	-19
278,479	-18,47
278,851	-18,04
279,223	-17,78
279,596	-17,77
279,968	-17,62
280,34	-17,15
280,712	-16,51
281,084	-15,88
281,456	-15,31
281,828	-14,65
282,2	-13,57
282,572	-12,5
282,944	-11,84
283,315	-11,5
283,687	-11,17
284,059	-10,98
284,431	-10,91
284,802	-10,72
285,174	-10,46
285,546	-10,08
285,917	-9,66
286,289	-9,44
286,66	-9,24
287,032	-9,02
287,403	-8,77
287,775	-8,61
288,146	-8,81
288,518	-8,99
288,889	-8,95
289,26	-8,96
289,632	-9,23
290,003	-9,56
290,374	-9,83
290,745	-10,01
291,116	-10,05
291,487	-10,26
291,858	-10,28
292,229	-10,1
292,6	-9,92
292,971	-9,56
293,342	-9,25
293,713	-8,82
294,084	-8,23
294,455	-7,41
294,826	-6,87
295,196	-6,77
295,567	-7
295,938	-6,92
296,308	-6,78
296,679	-6,67
297,05	-6,51
297,42	-6,2
297,791	-5,81
298,161	-5,57
298,532	-5,21
298,902	-5,07
299,272	-4,87
299,643	-4,67
300,013	-4,37
300,383	-4,12
300,754	-4,14
301,124	-4,27
301,494	-4,42
301,864	-4,56
302,234	-4,87
302,604	-4,97
302,974	-4,76
303,344	-4,31
303,714	-3,9
304,084	-3,53
304,454	-3,43
304,824	-3,3
305,194	-3,29
305,563	-3,33
305,933	-3,25
306,303	-3,06
306,673	-2,59
307,042	-2,19
307,412	-1,86
307,781	-1,48
308,151	-1,17
308,521	-0,99
308,89	-0,77
309,259	-0,79
309,629	-0,85
309,998	-0,89
310,368	-0,97
310,737	-1,07
311,106	-1,07
311,475	-1,01
311,845	-1
312,214	-0,89
312,583	-0,83
312,952	-0,76
313,321	-0,64
313,69	-0,54
314,059	-0,6
314,428	-0,72
314,797	-0,71
315,166	-0,84
315,535	-1,13
315,904	-1,45
316,272	-1,58
316,641	-1,64
317,01	-1,46
317,379	-1,27
317,747	-0,97
318,116	-0,6
318,484	-0,2
318,853	-0,02
319,221	0
319,59	0
319,958	0,12
320,327	0,25
320,695	0,34
321,063	0,47
321,432	0,67
321,8	0,92
322,168	1,03
322,536	1,08
322,905	1,37
323,273	1,65
323,641	1,86
324,009	2,14
324,377	2,35
324,745	2,45
325,113	2,61
325,481	2,79
325,849	2,88
326,216	2,86
326,584	2,89
326,952	2,92
327,32	3,04
327,687	3,18
328,055	3,34
328,423	3,58
328,79	3,73
329,158	3,7
329,525	3,71
329,893	3,81
330,26	3,97
330,628	3,99
330,995	4,04
331,362	4,12
331,73	4,16
332,097	4,29
332,464	4,53
332,831	4,75
333,199	4,75
333,566	4,81
333,933	4,99
334,3	5,28
334,667	5,52
335,034	5,63
335,401	5,67
335,768	5,7
336,135	5,71
336,502	5,73
336,868	5,88
337,235	5,95
337,602	6,08
337,969	6,26
338,335	6,4
338,702	6,64
339,069	6,79
339,435	6,92
339,802	7,03
340,168	7,01
340,535	7,01
340,901	6,99
341,267	7
341,634	7,11
342	7,14
342,366	7,18
342,733	7,22
343,099	7,35
343,465	7,39
343,831	7,4
344,197	7,46
344,563	7,49
344,929	7,62
345,295	7,74
345,661	7,78
346,027	7,89
346,393	7,86
346,759	7,92
347,125	7,93
347,491	7,98
347,856	8,08
348,222	8,09
348,588	8,22
348,953	8,34
349,319	8,25
349,684	8,3
350,05	8,37
350,415	8,45
350,781	8,5
351,146	8,6
351,512	8,71
351,877	8,8
352,242	8,94
352,608	8,99
352,973	9,05
353,338	9,07
353,703	9,11
354,068	9,15
354,433	9,15
354,798	9,21
355,164	9,28
355,528	9,35
355,893	9,41
356,258	9,45
356,623	9,54
356,988	9,77
357,353	9,85
357,718	9,88
358,082	9,9
358,447	9,93
358,812	10,04
359,176	10,17
359,541	10,28
359,905	10,35
360,27	10,42
360,634	10,4
360,999	10,44
361,363	10,43
361,728	10,5
362,092	10,63
362,456	10,71
362,821	10,77
363,185	10,81
363,549	10,9
363,913	10,98
364,277	10,98
364,641	10,91
365,005	10,96
365,369	11,06
365,733	11,19
366,097	11,33
366,461	11,42
366,825	11,49
367,189	11,55
367,553	11,62
367,916	11,75
368,28	11,93
368,644	12,05
369,007	12,16
369,371	12,27
369,734	12,41
370,098	12,51
370,461	12,61
370,825	12,72
371,188	12,81
371,552	12,91
371,915	13,01
372,278	13,21
372,642	13,32
373,005	13,45
373,368	13,58
373,731	13,61
374,094	13,67
374,457	13,74
374,82	13,88
375,183	13,98
375,546	14,01
375,909	14,04
376,272	14,11
376,635	14,2
376,998	14,26
377,361	14,29
377,723	14,37
378,086	14,45
378,449	14,51
378,811	14,59
379,174	14,69
379,537	14,83
379,899	14,9
380,262	14,96
380,624	15
380,987	15,08
381,349	15,21
381,711	15,32
382,074	15,38
382,436	15,42
382,798	15,52
383,16	15,59
383,522	15,68
383,884	15,76
384,247	15,84
384,609	15,92
384,971	15,99
385,333	16,02
385,695	16,06
386,056	16,1
386,418	16,09
386,78	16,09
387,142	16,04
387,504	16,06
387,865	16,09
388,227	16,12
388,589	16,13
388,95	16,16
389,312	16,16
389,673	16,22
390,035	16,26
390,396	16,31
390,758	16,38
391,119	16,42
391,48	16,44
391,842	16,47
392,203	16,53
392,564	16,55
392,925	16,64
393,286	16,67
393,648	16,75
394,009	16,83
394,37	16,89
394,731	16,96
395,092	17,04
395,452	17,1
395,813	17,15
396,174	17,16
396,535	17,18
396,896	17,21
397,257	17,25
397,617	17,27
397,978	17,3
398,338	17,32
398,699	17,36
399,06	17,45
399,42	17,46
399,781	17,44
400,141	17,47
400,501	17,47
400,862	17,52
401,222	17,51
401,582	17,55
401,943	17,59
402,303	17,63
402,663	17,63
403,023	17,61
403,383	17,64
403,743	17,68
404,103	17,74
404,463	17,78
404,823	17,8
405,183	17,83
405,543	17,86
405,903	17,87
406,262	17,89
406,622	17,86
406,982	17,9
407,342	17,95
407,701	17,98
408,061	18
408,42	18,04
408,78	18,06
409,139	18,07
409,499	18,07
409,858	18,07
410,217	18,11
410,577	18,15
410,936	18,18
411,295	18,19
411,655	18,17
412,014	18,19
412,373	18,17
412,732	18,17
413,091	18,16
413,45	18,15
413,809	18,15
414,168	18,15
414,527	18,17
414,886	18,16
415,245	18,15
415,603	18,14
415,962	18,11
416,321	18,11
416,679	18,09
417,038	18,07
417,397	18,07
417,755	18,06
418,114	18,05
418,472	18,04
418,831	18,04
419,189	18,05
419,547	18,03
419,906	18,04
420,264	18,02
420,622	18
420,981	18
421,339	18,01
421,697	18,02
422,055	18,03
422,413	18,05
422,771	18,07
423,129	18,1
423,487	18,12
423,845	18,15
424,203	18,19
424,56	18,22
424,918	18,24
425,276	18,27
425,634	18,32
425,991	18,34
426,349	18,37
426,707	18,42
427,064	18,47
427,422	18,51
427,779	18,58
428,137	18,65
428,494	18,75
428,851	18,79
429,209	18,83
429,566	18,85
429,923	18,87
430,28	18,88
430,637	18,88
430,995	18,88
431,352	18,87
431,709	18,85
432,066	18,88
432,423	18,88
432,78	18,89
433,137	18,88
433,493	18,88
433,85	18,94
434,207	18,9
434,564	18,91
434,92	18,93
435,277	18,91
435,634	18,91
435,99	18,89
436,347	18,88
436,703	18,88
437,06	18,88
437,416	18,9
437,773	18,92
438,129	18,92
438,485	18,95
438,841	18,96
439,198	18,97
439,554	18,98
439,91	19,02
440,266	19,04
440,622	19,06
440,978	19,08
441,334	19,06
441,69	19,07
442,046	19,09
442,402	19,06
442,758	19,08
443,113	19,1
443,469	19,1
443,825	19,13
444,181	19,14
444,536	19,16
444,892	19,16
445,247	19,17
445,603	19,18
445,958	19,19
446,314	19,21
446,669	19,23
447,025	19,25
447,38	19,27
447,735	19,27
448,09	19,26
448,446	19,28
448,801	19,3
449,156	19,34
449,511	19,37
449,866	19,42
450,221	19,46
450,576	19,5
450,931	19,56
451,286	19,61
451,641	19,65
451,995	19,68
452,35	19,74
452,705	19,78
453,06	19,81
453,414	19,82
453,769	19,85
454,123	19,89
454,478	19,9
454,832	19,91
455,187	19,91
455,541	19,94
455,896	19,93
456,25	19,92
456,604	19,91
456,958	19,9
457,313	19,91
457,667	19,91
458,021	19,91
458,375	19,94
458,729	19,93
459,083	19,95
459,437	19,98
459,791	19,98
460,145	19,97
460,499	19,97
460,852	19,99
461,206	20,01
461,56	20
461,914	20,01
462,267	20,01
462,621	20,04
462,974	20,03
463,328	20,04
463,681	20,05
464,035	20,07
464,388	20,11
464,742	20,13
465,095	20,17
465,448	20,19
465,801	20,18
466,155	20,18
466,508	20,18
466,861	20,17
467,214	20,18
467,567	20,2
467,92	20,22
468,273	20,23
468,626	20,22
468,979	20,22
469,332	20,23
469,684	20,25
470,037	20,27
470,39	20,3
470,743	20,34
471,095	20,38
471,448	20,4
471,8	20,41
472,153	20,42
472,505	20,43
472,858	20,44
473,21	20,46
473,562	20,48
473,915	20,49
474,267	20,52
474,619	20,5
474,971	20,51
475,324	20,53
475,676	20,55
476,028	20,57
476,38	20,6
476,732	20,6
477,084	20,59
477,436	20,58
477,787	20,57
478,139	20,56
478,491	20,56
478,843	20,55
479,195	20,56
479,546	20,57
479,898	20,56
480,249	20,57
480,601	20,6
480,952	20,61
481,304	20,63
481,655	20,62
482,007	20,63
482,358	20,62
482,709	20,61
483,061	20,6
483,412	20,59
483,763	20,59
484,114	20,6
484,465	20,61
484,816	20,63
485,167	20,63
485,518	20,62
485,869	20,62
486,22	20,62
486,571	20,62
486,922	20,62
487,272	20,63
487,623	20,64
487,974	20,63
488,324	20,63
488,675	20,61
489,025	20,62
489,376	20,63
489,726	20,65
490,077	20,65
490,427	20,67
490,778	20,69
491,128	20,69
491,478	20,69
491,828	20,7
492,179	20,7
492,529	20,73
492,879	20,75
493,229	20,79
493,579	20,82
493,929	20,84
494,279	20,87
494,629	20,89
494,979	20,9
495,328	20,91
495,678	20,92
496,028	20,97
496,378	21,01
496,727	21,03
497,077	21,07
497,426	21,1
497,776	21,1
498,125	21,1
498,475	21,13
498,824	21,16
499,174	21,16
499,523	21,19
499,872	21,21
500,221	21,25
500,571	21,26
500,92	21,26
501,269	21,26
501,618	21,26
501,967	21,28
502,316	21,29
502,665	21,29
503,014	21,31
503,363	21,32
503,711	21,32
504,06	21,33
504,409	21,35
504,758	21,34
505,106	21,35
505,455	21,37
505,803	21,37
506,152	21,36
506,5	21,36
506,849	21,33
507,197	21,32
507,546	21,32
507,894	21,34
508,242	21,34
508,59	21,35
508,939	21,37
509,287	21,38
509,635	21,41
509,983	21,44
510,331	21,46
510,679	21,47
511,027	21,48
511,375	21,5
511,723	21,51
512,07	21,51
512,418	21,54
512,766	21,56
513,114	21,59
513,461	21,62
513,809	21,65
514,156	21,68
514,504	21,69
514,851	21,69
515,199	21,68
515,546	21,71
515,893	21,73
516,241	21,74
516,588	21,75
516,935	21,76
517,282	21,77
517,63	21,78
517,977	21,79
518,324	21,8
518,671	21,8
519,018	21,82
519,365	21,84
519,711	21,84
520,058	21,84
520,405	21,86
520,752	21,87
521,099	21,87
521,445	21,88
521,792	21,89
522,138	21,92
522,485	21,94
522,832	21,96
523,178	21,97
523,524	21,98
523,871	21,99
524,217	22,01
524,563	22,03
524,91	22,06
525,256	22,08
525,602	22,1
525,948	22,13
526,294	22,12
526,64	22,1
526,986	22,1
527,332	22,1
527,678	22,09
528,024	22,1
528,37	22,11
528,716	22,12
529,061	22,13
529,407	22,13
529,753	22,13
530,098	22,13
530,444	22,13
530,789	22,13
531,135	22,14
531,48	22,13
531,826	22,13
532,171	22,12
532,516	22,12
532,862	22,1
533,207	22,08
533,552	22,1
533,897	22,12
534,242	22,14
534,587	22,17
534,932	22,19
535,277	22,19
535,622	22,2
535,967	22,21
536,312	22,23
536,657	22,24
537,001	22,25
537,346	22,26
537,691	22,29
538,035	22,3
538,38	22,32
538,724	22,34
539,069	22,33
539,413	22,34
539,758	22,35
540,102	22,37
540,446	22,36
540,791	22,37
541,135	22,37
541,479	22,38
541,823	22,37
542,167	22,38
542,512	22,38
542,856	22,36
543,2	22,35
543,543	22,35
543,887	22,36
544,231	22,39
544,575	22,41
544,919	22,41
545,262	22,42
545,606	22,41
545,95	22,41
546,293	22,43
546,637	22,42
546,98	22,43
547,324	22,44
547,667	22,5
548,011	22,5
548,354	22,52
548,697	22,52
549,04	22,53
549,384	22,53
549,727	22,53
550,07	22,55
550,413	22,55
550,756	22,58
551,099	22,56
551,442	22,55
551,785	22,55
552,128	22,57
552,47	22,56
552,813	22,6
553,156	22,6
553,499	22,6
553,841	22,63
554,184	22,64
554,526	22,62
554,869	22,59
555,211	22,58
555,554	22,59
555,896	22,57
556,238	22,55
556,581	22,5
556,923	22,51
557,265	22,5
557,607	22,54
557,949	22,5
558,291	22,51
558,633	22,52
558,975	22,5
559,317	22,45
559,659	22,47
560,001	22,45
560,343	22,44
560,685	22,43
561,026	22,42
561,368	22,43
561,71	22,39
562,051	22,36
562,393	22,37
562,734	22,35
563,076	22,37
563,417	22,37
563,759	22,39
564,1	22,38
564,441	22,36
564,782	22,3
565,124	22,29
565,465	22,27
565,806	22,25
566,147	22,26
566,488	22,29
566,829	22,26
567,17	22,27
567,511	22,28
567,851	22,27
568,192	22,27
568,533	22,23
568,874	22,24
569,214	22,24
569,555	22,23
569,895	22,23
570,236	22,21
570,576	22,2
570,917	22,2
571,257	22,21
571,598	22,23
571,938	22,26
572,278	22,26
572,618	22,29
572,959	22,29
573,299	22,29
573,639	22,27
573,979	22,26
574,319	22,23
574,659	22,22
574,999	22,21
575,339	22,2
575,678	22,23
576,018	22,25
576,358	22,25
576,698	22,23
577,037	22,26
577,377	22,25
577,716	22,27
578,056	22,25
578,395	22,23
578,735	22,22
579,074	22,17
579,413	22,16
579,753	22,13
580,092	22,07
580,431	22,03
580,77	22,05
581,109	22,05
581,448	22,04
581,787	22,02
582,126	22,04
582,465	22,04
582,804	22,03
583,143	22,04
583,482	22,07
583,82	22,1
584,159	22,1
584,498	22,09
584,836	22,1
585,175	22,11
585,514	22,14
585,852	22,13
586,19	22,18
586,529	22,18
586,867	22,21
587,205	22,25
587,544	22,25
587,882	22,25
588,22	22,26
588,558	22,28
588,896	22,29
589,234	22,27
589,572	22,25
589,91	22,22
590,248	22,2
590,586	22,18
590,924	22,16
591,262	22,15
591,599	22,19
591,937	22,16
592,275	22,17
592,612	22,17
592,95	22,17
593,287	22,18
593,625	22,22
593,962	22,2
594,299	22,25
594,637	22,27
594,974	22,29
595,311	22,29
595,648	22,29
595,985	22,33
596,322	22,34
596,659	22,37
596,996	22,41
597,333	22,41
597,67	22,41
598,007	22,42
598,344	22,42
598,681	22,42
599,017	22,43
599,354	22,45
599,691	22,46
600,027	22,48
600,364	22,48
600,7	22,5
601,037	22,56
601,373	22,55
601,71	22,62
602,046	22,63
602,382	22,65
602,718	22,65
603,054	22,62
603,391	22,63
603,727	22,61
604,063	22,61
604,399	22,62
604,735	22,65
605,071	22,66
605,406	22,66
605,742	22,66
606,078	22,7
606,414	22,71
606,749	22,73
607,085	22,74
607,421	22,75
607,756	22,72
608,092	22,7
608,427	22,69
608,762	22,64
609,098	22,6
609,433	22,59
609,768	22,6
610,104	22,59
610,439	22,61
610,774	22,62
611,109	22,6
611,444	22,59
611,779	22,55
612,114	22,53
612,449	22,52
612,784	22,48
613,118	22,45
613,453	22,39
613,788	22,35
614,123	22,3
614,457	22,28
614,792	22,28
615,126	22,28
615,461	22,26
615,795	22,26
616,13	22,28
616,464	22,26
616,798	22,24
617,132	22,25
617,467	22,23
617,801	22,25
618,135	22,28
618,469	22,28
618,803	22,29
619,137	22,3
619,471	22,3
619,805	22,28
620,139	22,3
620,472	22,3
620,806	22,31
621,14	22,32
621,473	22,33
621,807	22,31
622,141	22,31
622,474	22,3
622,808	22,31
623,141	22,27
623,474	22,3
623,808	22,33
624,141	22,39
624,474	22,41
624,807	22,4
625,141	22,38
625,474	22,44
625,807	22,45
626,14	22,47
626,473	22,5
626,806	22,53
627,138	22,54
627,471	22,59
627,804	22,61
628,137	22,63
628,469	22,59
628,802	22,6
629,135	22,62
629,467	22,64
629,8	22,67
630,132	22,69
630,465	22,74
630,797	22,74
631,129	22,71
631,461	22,71
631,794	22,73
632,126	22,76
632,458	22,72
632,79	22,75
633,122	22,76
633,454	22,76
633,786	22,77
634,118	22,76
634,45	22,76
634,781	22,75
635,113	22,77
635,445	22,81
635,777	22,87
636,108	22,85
636,44	22,84
636,771	22,86
637,103	22,91
637,434	22,86
637,765	22,85
638,097	22,84
638,428	22,83
638,759	22,81
639,09	22,82
639,422	22,82
639,753	22,84
640,084	22,83
640,415	22,86
640,746	22,92
641,077	22,92
641,407	22,91
641,738	22,91
642,069	22,9
642,4	22,88
642,73	22,88
643,061	22,85
643,392	22,83
643,722	22,79
644,053	22,76
644,383	22,79
644,713	22,8
645,044	22,84
645,374	22,81
645,704	22,81
646,034	22,83
646,365	22,82
646,695	22,8
647,025	22,81
647,355	22,78
647,685	22,76
