Data from zc74042_5_Reflection_00003.txt Node
Date: Thu Mar 12 14:53:33 ART 2020
User: Ana
Spectrometer: USB2E3644
Trigger mode: 4
Integration Time (sec): 5,000000E-2
Scans to average: 10
Electric dark correction enabled: true
Nonlinearity correction enabled: false
Boxcar width: 10
XAxis mode: Wavelengths
Number of Pixels in Spectrum: 2048
>>>>>Begin Spectral Data<<<<<
178,315	116,46
178,696	105,94
179,076	101,06
179,457	104,46
179,838	97,47
180,218	92,82
180,599	116,67
180,979	39,29
181,36	77,13
181,74	90,76
182,121	87,85
182,501	113,3
182,881	98,16
183,262	93,71
183,642	94,96
184,022	98,4
184,402	102,08
184,783	103,85
185,163	105,16
185,543	105,05
185,923	102,96
186,303	100,05
186,683	97,68
187,063	95,97
187,443	96,12
187,823	95,57
188,203	96,18
188,583	96,93
188,963	101,56
189,343	106,21
189,723	107,57
190,102	109,41
190,482	113,31
190,862	117,74
191,242	120,74
191,621	121,46
192,001	122,84
192,38	120,55
192,76	119,02
193,14	119,37
193,519	120,03
193,898	120,38
194,278	121,69
194,657	121,21
195,037	120,68
195,416	120,31
195,795	119,26
196,175	118,24
196,554	117,65
196,933	114
197,312	111,45
197,692	109,89
198,071	108,94
198,45	107,64
198,829	107,1
199,208	107,06
199,587	106,4
199,966	104,63
200,345	104,66
200,724	105,26
201,103	106,17
201,482	106,95
201,86	108,26
202,239	109,31
202,618	110,15
202,997	111,35
203,375	111,67
203,754	112,53
204,133	113,38
204,511	112,83
204,89	112,31
205,269	111,61
205,647	112,95
206,026	113,74
206,404	114,08
206,782	113,3
207,161	111,44
207,539	111,15
207,918	112,62
208,296	113,29
208,674	113,37
209,052	112,68
209,431	112,04
209,809	110,34
210,187	108,13
210,565	107,13
210,943	106,94
211,321	108,03
211,699	108,22
212,077	108,05
212,455	109,72
212,833	111,78
213,211	112,62
213,589	112,61
213,967	113,12
214,345	113,02
214,722	112,99
215,1	114,91
215,478	115,44
215,855	114,31
216,233	114,81
216,611	116,94
216,988	119,71
217,366	120,62
217,743	121,25
218,121	123,32
218,498	124,61
218,876	125,92
219,253	126,05
219,631	128,06
220,008	130,52
220,385	131,62
220,762	131,89
221,14	136,28
221,517	138,11
221,894	137,95
222,271	141,97
222,648	145,63
223,025	147,39
223,402	149,26
223,78	152,73
224,157	155,17
224,533	155,06
224,91	155,55
225,287	158,2
225,664	163,19
226,041	168,41
226,418	172,69
226,795	172,38
227,171	174,73
227,548	176,53
227,925	177,63
228,301	178,98
228,678	180,58
229,055	177,33
229,431	177,55
229,808	179,42
230,184	177,87
230,561	176,19
230,937	176,21
231,313	178,78
231,69	179,8
232,066	176,6
232,442	176,17
232,819	178,16
233,195	177,2
233,571	179,2
233,947	181,82
234,323	183,42
234,699	189,34
235,075	191,29
235,451	192,53
235,827	194,8
236,203	197,29
236,579	202,65
236,955	214,29
237,331	226,15
237,707	242,83
238,083	273,2
238,459	328,53
238,834	421,63
239,21	600,09
239,586	954,61
239,961	1945,76
240,337	5934,26
240,713	-11857,41
241,088	-3331,77
241,464	-2414,02
241,839	-1796,89
242,215	-1076,94
242,59	-629,34
242,965	-349,09
243,341	-208,06
243,716	-140,41
244,091	-111,35
244,467	-95,7
244,842	-85,67
245,217	-78,35
245,592	-74,71
245,967	-75,26
246,343	-75,49
246,718	-75,56
247,093	-78,09
247,468	-79,68
247,843	-79,08
248,218	-76,35
248,593	-71,35
248,967	-66,08
249,342	-63,09
249,717	-61,23
250,092	-60,3
250,467	-61,14
250,841	-65,87
251,216	-75,45
251,591	-91,04
251,965	-105,23
252,34	-115,7
252,714	-126,75
253,089	-134,42
253,463	-140,4
253,838	-137,12
254,212	-130,23
254,587	-121,46
254,961	-106,86
255,335	-92,68
255,71	-78,68
256,084	-63,48
256,458	-52,22
256,832	-45,01
257,206	-40,79
257,581	-38,45
257,955	-36,76
258,329	-35,09
258,703	-33,29
259,077	-32,05
259,451	-30,52
259,825	-29,7
260,199	-29,7
260,572	-29,59
260,946	-29,94
261,32	-29,92
261,694	-29,58
262,068	-29,46
262,441	-29,22
262,815	-28,89
263,189	-28,35
263,562	-28,61
263,936	-30,62
264,309	-33,8
264,683	-36,9
265,056	-38,63
265,43	-39,27
265,803	-39,4
266,176	-39,17
266,55	-39,12
266,923	-38,79
267,296	-38,28
267,67	-37,01
268,043	-35,88
268,416	-34,09
268,789	-32,19
269,162	-30,28
269,535	-28,51
269,908	-27,3
270,281	-26,57
270,654	-26,55
271,027	-27,22
271,4	-27,57
271,773	-27,46
272,146	-27,28
272,519	-27,43
272,891	-27,69
273,264	-28,1
273,637	-28,43
274,01	-28,47
274,382	-28,86
274,755	-28,84
275,127	-28,87
275,5	-29,05
275,872	-28,96
276,245	-28,79
276,617	-28,95
276,99	-29,25
277,362	-30,02
277,734	-30,05
278,107	-29,79
278,479	-29,49
278,851	-28,85
279,223	-28,08
279,596	-27,27
279,968	-27,01
280,34	-26,54
280,712	-25,65
281,084	-24,31
281,456	-22,82
281,828	-21,34
282,2	-19,48
282,572	-18,27
282,944	-17,34
283,315	-16,8
283,687	-16,3
284,059	-16,22
284,431	-16,12
284,802	-15,76
285,174	-15,29
285,546	-15,05
285,917	-14,71
286,289	-14,32
286,66	-14,05
287,032	-13,88
287,403	-13,89
287,775	-13,87
288,146	-13,98
288,518	-14,27
288,889	-14,34
289,26	-14,54
289,632	-15,2
290,003	-15,94
290,374	-16,34
290,745	-16,6
291,116	-16,65
291,487	-16,66
291,858	-16,59
292,229	-16,53
292,6	-16,36
292,971	-15,9
293,342	-15,32
293,713	-14,87
294,084	-14,43
294,455	-13,93
294,826	-13,68
295,196	-13,7
295,567	-13,91
295,938	-13,75
296,308	-13,52
296,679	-13,38
297,05	-13,28
297,42	-13
297,791	-12,67
298,161	-12,51
298,532	-12,3
298,902	-12,06
299,272	-11,88
299,643	-11,62
300,013	-11,14
300,383	-10,78
300,754	-10,76
301,124	-10,89
301,494	-11,08
301,864	-11,34
302,234	-11,44
302,604	-11,4
302,974	-11,17
303,344	-10,68
303,714	-10,22
304,084	-9,73
304,454	-9,6
304,824	-9,55
305,194	-9,54
305,563	-9,42
305,933	-9,29
306,303	-9,16
306,673	-8,93
307,042	-8,62
307,412	-8,32
307,781	-8,07
308,151	-7,99
308,521	-7,93
308,89	-7,77
309,259	-7,77
309,629	-7,71
309,998	-7,69
310,368	-7,6
310,737	-7,47
311,106	-7,39
311,475	-7,44
311,845	-7,6
312,214	-7,51
312,583	-7,32
312,952	-7,17
313,321	-7,08
313,69	-6,87
314,059	-6,77
314,428	-6,85
314,797	-6,94
315,166	-7,2
315,535	-7,53
315,904	-7,79
316,272	-7,94
316,641	-8,14
317,01	-8,06
317,379	-7,95
317,747	-7,89
318,116	-7,87
318,484	-7,86
318,853	-7,81
319,221	-7,77
319,59	-7,71
319,958	-7,56
320,327	-7,48
320,695	-7,29
321,063	-7,14
321,432	-6,99
321,8	-6,74
322,168	-6,59
322,536	-6,58
322,905	-6,27
323,273	-5,9
323,641	-5,62
324,009	-5,37
324,377	-5,18
324,745	-5,06
325,113	-4,9
325,481	-4,67
325,849	-4,54
326,216	-4,4
326,584	-4,23
326,952	-4,03
327,32	-3,81
327,687	-3,7
328,055	-3,54
328,423	-3,52
328,79	-3,59
329,158	-3,73
329,525	-3,92
329,893	-3,91
330,26	-3,78
330,628	-3,82
330,995	-3,84
331,362	-3,92
331,73	-3,99
332,097	-4,01
332,464	-3,89
332,831	-3,69
333,199	-3,61
333,566	-3,51
333,933	-3,33
334,3	-3,19
334,667	-3,16
335,034	-3,16
335,401	-3,19
335,768	-3,22
336,135	-3,12
336,502	-3,02
336,868	-2,87
337,235	-2,75
337,602	-2,67
337,969	-2,62
338,335	-2,51
338,702	-2,42
339,069	-2,32
339,435	-2,21
339,802	-2,07
340,168	-2,06
340,535	-2,09
340,901	-2,16
341,267	-2,15
341,634	-2,08
342	-2,05
342,366	-1,98
342,733	-1,96
343,099	-1,86
343,465	-1,85
343,831	-1,91
344,197	-1,88
344,563	-1,88
344,929	-1,85
345,295	-1,77
345,661	-1,66
346,027	-1,59
346,393	-1,57
346,759	-1,49
347,125	-1,43
347,491	-1,41
347,856	-1,33
348,222	-1,29
348,588	-1,14
348,953	-0,99
349,319	-0,97
349,684	-0,9
350,05	-0,89
350,415	-0,8
350,781	-0,75
351,146	-0,64
351,512	-0,52
351,877	-0,47
352,242	-0,42
352,608	-0,37
352,973	-0,33
353,338	-0,28
353,703	-0,2
354,068	-0,17
354,433	-0,13
354,798	-0,08
355,164	-0,05
355,528	-0,03
355,893	-0
356,258	-0,02
356,623	0,01
356,988	0,04
357,353	0,04
357,718	0,1
358,082	0,16
358,447	0,25
358,812	0,36
359,176	0,44
359,541	0,53
359,905	0,61
360,27	0,69
360,634	0,75
360,999	0,79
361,363	0,79
361,728	0,83
362,092	0,86
362,456	0,88
362,821	0,98
363,185	1,07
363,549	1,17
363,913	1,21
364,277	1,22
364,641	1,22
365,005	1,33
365,369	1,43
365,733	1,48
366,097	1,49
366,461	1,49
366,825	1,51
367,189	1,53
367,553	1,58
367,916	1,69
368,28	1,74
368,644	1,76
369,007	1,83
369,371	1,95
369,734	2,1
370,098	2,22
370,461	2,3
370,825	2,35
371,188	2,37
371,552	2,42
371,915	2,44
372,278	2,55
372,642	2,61
373,005	2,67
373,368	2,76
373,731	2,86
374,094	2,99
374,457	3,1
374,82	3,22
375,183	3,29
375,546	3,36
375,909	3,45
376,272	3,58
376,635	3,68
376,998	3,76
377,361	3,81
377,723	3,85
378,086	3,88
378,449	3,89
378,811	3,94
379,174	4,03
379,537	4,14
379,899	4,19
380,262	4,23
380,624	4,28
380,987	4,32
381,349	4,37
381,711	4,41
382,074	4,46
382,436	4,5
382,798	4,59
383,16	4,61
383,522	4,66
383,884	4,71
384,247	4,76
384,609	4,78
384,971	4,79
385,333	4,79
385,695	4,83
386,056	4,88
386,418	4,91
386,78	4,91
387,142	4,93
387,504	4,97
387,865	4,99
388,227	4,99
388,589	4,98
388,95	5
389,312	4,99
389,673	4,99
390,035	5,01
390,396	5,03
390,758	5,04
391,119	5,05
391,48	5,05
391,842	5,05
392,203	5,06
392,564	5,06
392,925	5,11
393,286	5,12
393,648	5,14
394,009	5,16
394,37	5,16
394,731	5,18
395,092	5,2
395,452	5,23
395,813	5,26
396,174	5,3
396,535	5,33
396,896	5,34
397,257	5,37
397,617	5,39
397,978	5,41
398,338	5,43
398,699	5,46
399,06	5,49
399,42	5,49
399,781	5,5
400,141	5,52
400,501	5,51
400,862	5,51
401,222	5,51
401,582	5,53
401,943	5,56
402,303	5,58
402,663	5,58
403,023	5,57
403,383	5,59
403,743	5,58
404,103	5,59
404,463	5,6
404,823	5,64
405,183	5,66
405,543	5,69
405,903	5,71
406,262	5,7
406,622	5,68
406,982	5,69
407,342	5,71
407,701	5,72
408,061	5,74
408,42	5,77
408,78	5,79
409,139	5,79
409,499	5,79
409,858	5,79
410,217	5,81
410,577	5,81
410,936	5,81
411,295	5,82
411,655	5,81
412,014	5,78
412,373	5,73
412,732	5,68
413,091	5,64
413,45	5,58
413,809	5,54
414,168	5,48
414,527	5,43
414,886	5,37
415,245	5,31
415,603	5,27
415,962	5,22
416,321	5,2
416,679	5,17
417,038	5,13
417,397	5,08
417,755	5,02
418,114	4,99
418,472	4,97
418,831	4,94
419,189	4,93
419,547	4,91
419,906	4,89
420,264	4,86
420,622	4,84
420,981	4,84
421,339	4,84
421,697	4,85
422,055	4,86
422,413	4,88
422,771	4,91
423,129	4,93
423,487	4,96
423,845	4,98
424,203	5
424,56	5,03
424,918	5,07
425,276	5,13
425,634	5,16
425,991	5,18
426,349	5,22
426,707	5,25
427,064	5,3
427,422	5,35
427,779	5,41
428,137	5,47
428,494	5,51
428,851	5,54
429,209	5,57
429,566	5,58
429,923	5,59
430,28	5,57
430,637	5,57
430,995	5,54
431,352	5,53
431,709	5,52
432,066	5,53
432,423	5,52
432,78	5,5
433,137	5,51
433,493	5,51
433,85	5,53
434,207	5,51
434,564	5,5
434,92	5,49
435,277	5,48
435,634	5,47
435,99	5,44
436,347	5,43
436,703	5,43
437,06	5,41
437,416	5,41
437,773	5,4
438,129	5,39
438,485	5,4
438,841	5,39
439,198	5,39
439,554	5,38
439,91	5,39
440,266	5,4
440,622	5,4
440,978	5,39
441,334	5,36
441,69	5,35
442,046	5,33
442,402	5,33
442,758	5,34
443,113	5,33
443,469	5,33
443,825	5,34
444,181	5,34
444,536	5,35
444,892	5,35
445,247	5,37
445,603	5,38
445,958	5,39
446,314	5,41
446,669	5,42
447,025	5,43
447,38	5,44
447,735	5,45
448,09	5,46
448,446	5,48
448,801	5,51
449,156	5,54
449,511	5,57
449,866	5,6
450,221	5,62
450,576	5,66
450,931	5,7
451,286	5,73
451,641	5,77
451,995	5,82
452,35	5,87
452,705	5,88
453,06	5,89
453,414	5,91
453,769	5,91
454,123	5,91
454,478	5,92
454,832	5,93
455,187	5,92
455,541	5,9
455,896	5,88
456,25	5,85
456,604	5,83
456,958	5,81
457,313	5,8
457,667	5,78
458,021	5,79
458,375	5,81
458,729	5,83
459,083	5,82
459,437	5,81
459,791	5,81
460,145	5,83
460,499	5,84
460,852	5,83
461,206	5,83
461,56	5,83
461,914	5,84
462,267	5,84
462,621	5,86
462,974	5,87
463,328	5,9
463,681	5,93
464,035	5,97
464,388	6
464,742	6,01
465,095	6,04
465,448	6,07
465,801	6,04
466,155	6,03
466,508	6,02
466,861	6,02
467,214	6,02
467,567	6,01
467,92	6,02
468,273	6,04
468,626	6,04
468,979	6,05
469,332	6,05
469,684	6,06
470,037	6,06
470,39	6,07
470,743	6,09
471,095	6,09
471,448	6,1
471,8	6,12
472,153	6,15
472,505	6,16
472,858	6,18
473,21	6,22
473,562	6,24
473,915	6,25
474,267	6,27
474,619	6,29
474,971	6,31
475,324	6,29
475,676	6,29
476,028	6,31
476,38	6,31
476,732	6,33
477,084	6,33
477,436	6,32
477,787	6,31
478,139	6,31
478,491	6,3
478,843	6,29
479,195	6,27
479,546	6,23
479,898	6,2
480,249	6,13
480,601	6,08
480,952	6,05
481,304	6,03
481,655	6,01
482,007	5,99
482,358	5,98
482,709	5,98
483,061	5,97
483,412	5,96
483,763	5,96
484,114	5,96
484,465	5,96
484,816	5,95
485,167	5,95
485,518	5,95
485,869	5,96
486,22	5,96
486,571	5,96
486,922	5,98
487,272	5,99
487,623	6,02
487,974	6,05
488,324	6,08
488,675	6,1
489,025	6,11
489,376	6,13
489,726	6,14
490,077	6,16
490,427	6,19
490,778	6,2
491,128	6,23
491,478	6,25
491,828	6,29
492,179	6,31
492,529	6,35
492,879	6,38
493,229	6,41
493,579	6,44
493,929	6,47
494,279	6,48
494,629	6,5
494,979	6,51
495,328	6,54
495,678	6,59
496,028	6,65
496,378	6,7
496,727	6,75
497,077	6,78
497,426	6,81
497,776	6,82
498,125	6,85
498,475	6,86
498,824	6,87
499,174	6,87
499,523	6,89
499,872	6,91
500,221	6,93
500,571	6,94
500,92	6,97
501,269	6,98
501,618	7,01
501,967	7,03
502,316	7,05
502,665	7,06
503,014	7,05
503,363	7,05
503,711	7,06
504,06	7,07
504,409	7,07
504,758	7,09
505,106	7,11
505,455	7,11
505,803	7,11
506,152	7,12
506,5	7,13
506,849	7,15
507,197	7,15
507,546	7,17
507,894	7,2
508,242	7,2
508,59	7,21
508,939	7,21
509,287	7,21
509,635	7,23
509,983	7,26
510,331	7,27
510,679	7,29
511,027	7,31
511,375	7,33
511,723	7,36
512,07	7,37
512,418	7,37
512,766	7,41
513,114	7,45
513,461	7,48
513,809	7,5
514,156	7,51
514,504	7,54
514,851	7,54
515,199	7,54
515,546	7,54
515,893	7,56
516,241	7,58
516,588	7,6
516,935	7,63
517,282	7,64
517,63	7,66
517,977	7,67
518,324	7,69
518,671	7,7
519,018	7,72
519,365	7,74
519,711	7,76
520,058	7,77
520,405	7,78
520,752	7,78
521,099	7,81
521,445	7,84
521,792	7,85
522,138	7,88
522,485	7,89
522,832	7,92
523,178	7,95
523,524	7,96
523,871	7,99
524,217	8
524,563	8,02
524,91	8,02
525,256	8,03
525,602	8,02
525,948	8,02
526,294	8,02
526,64	8,02
526,986	8,01
527,332	8
527,678	8,01
528,024	8,03
528,37	8,05
528,716	8,05
529,061	8,08
529,407	8,08
529,753	8,11
530,098	8,12
530,444	8,13
530,789	8,14
531,135	8,15
531,48	8,15
531,826	8,16
532,171	8,19
532,516	8,22
532,862	8,26
533,207	8,29
533,552	8,32
533,897	8,36
534,242	8,39
534,587	8,42
534,932	8,46
535,277	8,47
535,622	8,48
535,967	8,52
536,312	8,53
536,657	8,57
537,001	8,61
537,346	8,67
537,691	8,72
538,035	8,76
538,38	8,79
538,724	8,83
539,069	8,85
539,413	8,87
539,758	8,9
540,102	8,91
540,446	8,93
540,791	8,95
541,135	8,98
541,479	9,02
541,823	9,04
542,167	9,04
542,512	9,07
542,856	9,07
543,2	9,09
543,543	9,09
543,887	9,1
544,231	9,11
544,575	9,12
544,919	9,13
545,262	9,17
545,606	9,2
545,95	9,23
546,293	9,27
546,637	9,29
546,98	9,31
547,324	9,35
547,667	9,39
548,011	9,42
548,354	9,44
548,697	9,46
549,04	9,48
549,384	9,51
549,727	9,48
550,07	9,52
550,413	9,54
550,756	9,56
551,099	9,59
551,442	9,62
551,785	9,66
552,128	9,69
552,47	9,71
552,813	9,74
553,156	9,77
553,499	9,79
553,841	9,82
554,184	9,85
554,526	9,84
554,869	9,83
555,211	9,85
555,554	9,86
555,896	9,87
556,238	9,87
556,581	9,86
556,923	9,9
557,265	9,92
557,607	9,94
557,949	9,97
558,291	9,98
558,633	9,99
558,975	10
559,317	10
559,659	9,99
560,001	9,97
560,343	9,98
560,685	9,98
561,026	9,97
561,368	9,98
561,71	10,03
562,051	10,06
562,393	10,09
562,734	10,08
563,076	10,1
563,417	10,12
563,759	10,14
564,1	10,15
564,441	10,16
564,782	10,16
565,124	10,19
565,465	10,22
565,806	10,25
566,147	10,24
566,488	10,24
566,829	10,28
567,17	10,3
567,511	10,3
567,851	10,32
568,192	10,32
568,533	10,33
568,874	10,35
569,214	10,36
569,555	10,38
569,895	10,41
570,236	10,4
570,576	10,41
570,917	10,45
571,257	10,47
571,598	10,49
571,938	10,51
572,278	10,52
572,618	10,53
572,959	10,57
573,299	10,6
573,639	10,63
573,979	10,63
574,319	10,64
574,659	10,66
574,999	10,68
575,339	10,71
575,678	10,74
576,018	10,74
576,358	10,75
576,698	10,75
577,037	10,77
577,377	10,8
577,716	10,81
578,056	10,84
578,395	10,84
578,735	10,86
579,074	10,88
579,413	10,87
579,753	10,87
580,092	10,84
580,431	10,84
580,77	10,88
581,109	10,9
581,448	10,93
581,787	10,94
582,126	10,93
582,465	10,96
582,804	10,97
583,143	10,97
583,482	11
583,82	11,02
584,159	11,06
584,498	11,08
584,836	11,09
585,175	11,08
585,514	11,13
585,852	11,16
586,19	11,18
586,529	11,21
586,867	11,24
587,205	11,28
587,544	11,32
587,882	11,34
588,22	11,37
588,558	11,41
588,896	11,45
589,234	11,49
589,572	11,5
589,91	11,55
590,248	11,59
590,586	11,62
590,924	11,66
591,262	11,69
591,599	11,73
591,937	11,78
592,275	11,81
592,612	11,84
592,95	11,89
593,287	11,97
593,625	12,02
593,962	12,1
594,299	12,16
594,637	12,2
594,974	12,24
595,311	12,3
595,648	12,33
595,985	12,39
596,322	12,43
596,659	12,47
596,996	12,51
597,333	12,52
597,67	12,54
598,007	12,56
598,344	12,59
598,681	12,65
599,017	12,67
599,354	12,72
599,691	12,78
600,027	12,82
600,364	12,84
600,7	12,9
601,037	12,96
601,373	13,03
601,71	13,11
602,046	13,2
602,382	13,21
602,718	13,26
603,054	13,28
603,391	13,34
603,727	13,35
604,063	13,36
604,399	13,43
604,735	13,46
605,071	13,5
605,406	13,54
605,742	13,57
606,078	13,63
606,414	13,68
606,749	13,69
607,085	13,74
607,421	13,79
607,756	13,81
608,092	13,81
608,427	13,82
608,762	13,82
609,098	13,83
609,433	13,85
609,768	13,86
610,104	13,89
610,439	13,87
610,774	13,93
611,109	13,97
611,444	13,98
611,779	13,98
612,114	13,99
612,449	14,02
612,784	14,01
613,118	14,03
613,453	14,04
613,788	14,07
614,123	14,07
614,457	14,06
614,792	14,12
615,126	14,14
615,461	14,17
615,795	14,23
616,13	14,21
616,464	14,25
616,798	14,29
617,132	14,32
617,467	14,33
617,801	14,34
618,135	14,39
618,469	14,4
618,803	14,49
619,137	14,57
619,471	14,57
619,805	14,62
620,139	14,66
620,472	14,71
620,806	14,74
621,14	14,76
621,473	14,79
621,807	14,78
622,141	14,83
622,474	14,86
622,808	14,88
623,141	14,94
623,474	14,99
623,808	15,06
624,141	15,12
624,474	15,22
624,807	15,29
625,141	15,33
625,474	15,41
625,807	15,43
626,14	15,45
626,473	15,5
626,806	15,56
627,138	15,58
627,471	15,58
627,804	15,63
628,137	15,66
628,469	15,7
628,802	15,74
629,135	15,75
629,467	15,78
629,8	15,82
630,132	15,85
630,465	15,89
630,797	15,94
631,129	15,98
631,461	16,04
631,794	16,08
632,126	16,1
632,458	16,13
632,79	16,18
633,122	16,25
633,454	16,31
633,786	16,32
634,118	16,34
634,45	16,41
634,781	16,46
635,113	16,47
635,445	16,49
635,777	16,54
636,108	16,58
636,44	16,61
636,771	16,64
637,103	16,63
637,434	16,69
637,765	16,67
638,097	16,69
638,428	16,7
638,759	16,7
639,09	16,73
639,422	16,75
639,753	16,8
640,084	16,78
640,415	16,8
640,746	16,85
641,077	16,9
641,407	16,96
641,738	16,98
642,069	17,05
642,4	17,1
642,73	17,16
643,061	17,22
643,392	17,3
643,722	17,38
644,053	17,43
644,383	17,42
644,713	17,47
645,044	17,51
645,374	17,55
645,704	17,6
646,034	17,62
646,365	17,65
646,695	17,67
647,025	17,73
647,355	17,84
647,685	17,88
648,015	17,95
648,344	17,95
648,674	17,96
649,004	17,99
649,334	18,02
649,663	18,03
649,993	18,04
650,323	18,08
650,652	18,08
650,982	18,11
651,311	18,14
651,64	18,16
651,97	18,18
652,299	18,19
652,628	18,22
652,958	18,26
653,287	18,33
653,616	18,36
653,945	18,39
654,274	18,38
654,603	18,41
654,932	18,41
655,261	18,45
655,589	18,57
655,918	18,62
656,247	18,7
656,576	18,76
