Data from zc74051_3_Reflection_00002.txt Node
Date: Thu Mar 12 15:04:39 ART 2020
User: Ana
Spectrometer: USB2E3644
Trigger mode: 4
Integration Time (sec): 5,000000E-2
Scans to average: 10
Electric dark correction enabled: true
Nonlinearity correction enabled: false
Boxcar width: 10
XAxis mode: Wavelengths
Number of Pixels in Spectrum: 2048
>>>>>Begin Spectral Data<<<<<
178,315	113,49
178,696	127,93
179,076	155,01
179,457	163,36
179,838	145,51
180,218	156,57
180,599	-80,56
180,979	84,21
181,36	92,22
181,74	55,56
182,121	57,41
182,501	89,66
182,881	86,48
183,262	87,54
183,642	88,33
184,022	90,58
184,402	89,95
184,783	87,85
185,163	86,41
185,543	86,84
185,923	89,61
186,303	93,16
186,683	97,5
187,063	100,63
187,443	100,84
187,823	98,91
188,203	95,93
188,583	95,87
188,963	95,74
189,343	95,09
189,723	96,44
190,102	97,2
190,482	97,62
190,862	98,13
191,242	98,03
191,621	97,95
192,001	98,83
192,38	98,58
192,76	99,43
193,14	100,11
193,519	99,32
193,898	97,77
194,278	96,7
194,657	95,62
195,037	95,16
195,416	95,22
195,795	95,13
196,175	95,93
196,554	95,45
196,933	95,11
197,312	95,9
197,692	96,14
198,071	96,79
198,45	97,71
198,829	98,33
199,208	98,95
199,587	99,16
199,966	99,47
200,345	100,19
200,724	100,29
201,103	100,49
201,482	100,78
201,86	100,57
202,239	99,69
202,618	99,5
202,997	100,28
203,375	100,57
203,754	100,57
204,133	100,96
204,511	101,43
204,89	101,98
205,269	102,05
205,647	101,92
206,026	100,99
206,404	99,98
206,782	99,44
207,161	98,72
207,539	98,37
207,918	97,32
208,296	96,3
208,674	95,55
209,052	95,04
209,431	94,73
209,809	95,54
210,187	96,92
210,565	97,72
210,943	97,64
211,321	98,27
211,699	99,08
212,077	99,17
212,455	99,43
212,833	99,33
213,211	98,49
213,589	98
213,967	98,74
214,345	99,6
214,722	99,98
215,1	100,36
215,478	100,84
215,855	102,02
216,233	103,24
216,611	103,98
216,988	104,19
217,366	104,14
217,743	103,71
218,121	102,03
218,498	100,56
218,876	99,5
219,253	97,8
219,631	95,69
220,008	95,19
220,385	94,66
220,762	94,65
221,14	94,99
221,517	95,46
221,894	95,31
222,271	95,21
222,648	95,48
223,025	95,63
223,402	95,82
223,78	94,9
224,157	93,74
224,533	93,38
224,91	93,94
225,287	94,6
225,664	95,18
226,041	97,5
226,418	99,42
226,795	100,17
227,171	101,13
227,548	102,91
227,925	103,32
228,301	103,33
228,678	102,51
229,055	102,78
229,431	103,66
229,808	104,86
230,184	105,98
230,561	107,55
230,937	108,64
231,313	109,12
231,69	110,83
232,066	113,88
232,442	116,07
232,819	117,43
233,195	118,36
233,571	119,43
233,947	118,68
234,323	118,5
234,699	119,16
235,075	120,3
235,451	122,65
235,827	125,71
236,203	129,39
236,579	134,53
236,955	138,22
237,331	141,69
237,707	147,56
238,083	154,88
238,459	163,79
238,834	179,1
239,21	201,15
239,586	225,4
239,961	246,14
240,337	263,12
240,713	275,53
241,088	291,59
241,464	306,92
241,839	327,11
242,215	357,58
242,59	441,52
242,965	783,54
243,341	-4196,24
243,716	-520,41
244,091	-298,58
244,467	-223,63
244,842	-185,04
245,217	-158,25
245,592	-143,95
245,967	-141,56
246,343	-136,82
246,718	-133,21
247,093	-134,29
247,468	-137,66
247,843	-136
248,218	-128,25
248,593	-115,89
248,967	-104,51
249,342	-97,58
249,717	-93,1
250,092	-90,52
250,467	-91,2
250,841	-98,07
251,216	-114,48
251,591	-141,7
251,965	-173,09
252,34	-204,46
252,714	-244,71
253,089	-295,21
253,463	-335,57
253,838	-336,29
254,212	-326,94
254,587	-296,09
254,961	-240,56
255,335	-188,56
255,71	-144,86
256,084	-105,39
256,458	-81,04
256,832	-67,19
257,206	-59,83
257,581	-56,21
257,955	-54,4
258,329	-52,84
258,703	-50,52
259,077	-48,43
259,451	-46,26
259,825	-45,39
260,199	-45,32
260,572	-44,44
260,946	-44,08
261,32	-43,39
261,694	-42,25
262,068	-41,98
262,441	-41,75
262,815	-41,84
263,189	-41,61
263,562	-42,44
263,936	-45,79
264,309	-51,33
264,683	-57,29
265,056	-60,81
265,43	-61,76
265,803	-60,8
266,176	-59,12
266,55	-58,11
266,923	-57,41
267,296	-56,1
267,67	-53,5
268,043	-51,27
268,416	-48,43
268,789	-45,21
269,162	-42,35
269,535	-40,2
269,908	-38,15
270,281	-37,04
270,654	-36,92
271,027	-37,52
271,4	-37,97
271,773	-38,12
272,146	-37,97
272,519	-37,83
272,891	-37,9
273,264	-38,24
273,637	-38,26
274,01	-38,25
274,382	-39,02
274,755	-39,03
275,127	-39,13
275,5	-39,4
275,872	-39,37
276,245	-39,47
276,617	-40,12
276,99	-40,93
277,362	-41,71
277,734	-42,1
278,107	-41,83
278,479	-40,71
278,851	-39,22
279,223	-38,13
279,596	-37,08
279,968	-36,25
280,34	-35,34
280,712	-34,42
281,084	-33,04
281,456	-31,76
281,828	-30,28
282,2	-28,06
282,572	-26,51
282,944	-25,51
283,315	-25
283,687	-24,42
284,059	-24,17
284,431	-23,87
284,802	-23,32
285,174	-22,83
285,546	-22,43
285,917	-22,06
286,289	-21,92
286,66	-21,83
287,032	-21,46
287,403	-21,27
287,775	-21,26
288,146	-21,49
288,518	-21,63
288,889	-21,61
289,26	-21,66
289,632	-22,19
290,003	-22,85
290,374	-23,18
290,745	-23,23
291,116	-22,98
291,487	-22,79
291,858	-22,54
292,229	-22,48
292,6	-22,41
292,971	-21,81
293,342	-21,05
293,713	-20,06
294,084	-19,04
294,455	-18,17
294,826	-17,75
295,196	-17,6
295,567	-17,62
295,938	-17,32
296,308	-16,94
296,679	-16,64
297,05	-16,26
297,42	-15,63
297,791	-15
298,161	-14,69
298,532	-14,29
298,902	-13,95
299,272	-13,72
299,643	-13,51
300,013	-13
300,383	-12,45
300,754	-12,29
301,124	-12,42
301,494	-12,82
301,864	-13,31
302,234	-13,83
302,604	-14,12
302,974	-14,09
303,344	-13,75
303,714	-13,4
304,084	-12,94
304,454	-12,75
304,824	-12,82
305,194	-12,95
305,563	-13,14
305,933	-13,26
306,303	-13,32
306,673	-13,15
307,042	-12,78
307,412	-12,22
307,781	-11,66
308,151	-11,43
308,521	-11,28
308,89	-11,11
309,259	-11,01
309,629	-10,88
309,998	-10,69
310,368	-10,6
310,737	-10,48
311,106	-10,45
311,475	-10,47
311,845	-10,56
312,214	-10,42
312,583	-10,16
312,952	-9,96
313,321	-9,79
313,69	-9,39
314,059	-9,17
314,428	-9,06
314,797	-9,03
315,166	-9,34
315,535	-9,92
315,904	-10,42
316,272	-10,67
316,641	-10,7
317,01	-10,54
317,379	-10,35
317,747	-10,09
318,116	-9,59
318,484	-9,17
318,853	-8,84
319,221	-8,66
319,59	-8,71
319,958	-8,73
320,327	-8,82
320,695	-8,9
321,063	-8,8
321,432	-8,64
321,8	-8,34
322,168	-8,15
322,536	-8,17
322,905	-7,73
323,273	-7,24
323,641	-6,78
324,009	-6,42
324,377	-6,21
324,745	-5,99
325,113	-5,77
325,481	-5,53
325,849	-5,42
326,216	-5,32
326,584	-5,19
326,952	-4,98
327,32	-4,61
327,687	-4,39
328,055	-4,11
328,423	-3,88
328,79	-3,76
329,158	-3,75
329,525	-3,8
329,893	-3,77
330,26	-3,62
330,628	-3,63
330,995	-3,59
331,362	-3,62
331,73	-3,62
332,097	-3,5
332,464	-3,37
332,831	-3,22
333,199	-3,15
333,566	-3,09
333,933	-3
334,3	-2,88
334,667	-2,82
335,034	-2,84
335,401	-2,84
335,768	-2,71
336,135	-2,57
336,502	-2,42
336,868	-2,32
337,235	-2,16
337,602	-1,98
337,969	-1,72
338,335	-1,49
338,702	-1,24
339,069	-0,96
339,435	-0,78
339,802	-0,62
340,168	-0,55
340,535	-0,47
340,901	-0,43
341,267	-0,37
341,634	-0,23
342	-0,06
342,366	0,15
342,733	0,29
343,099	0,43
343,465	0,41
343,831	0,41
344,197	0,46
344,563	0,51
344,929	0,54
345,295	0,58
345,661	0,62
346,027	0,69
346,393	0,7
346,759	0,73
347,125	0,77
347,491	0,8
347,856	0,86
348,222	0,87
348,588	0,98
348,953	1,11
349,319	1,09
349,684	1,09
350,05	1,13
350,415	1,24
350,781	1,3
351,146	1,43
351,512	1,57
351,877	1,65
352,242	1,71
352,608	1,78
352,973	1,85
353,338	1,9
353,703	1,93
354,068	1,97
354,433	2,03
354,798	2,1
355,164	2,19
355,528	2,27
355,893	2,36
356,258	2,42
356,623	2,54
356,988	2,71
357,353	2,8
357,718	2,85
358,082	2,88
358,447	2,96
358,812	3,1
359,176	3,19
359,541	3,3
359,905	3,41
360,27	3,49
360,634	3,54
360,999	3,63
361,363	3,72
361,728	3,79
362,092	3,84
362,456	3,88
362,821	3,93
363,185	4,03
363,549	4,16
363,913	4,24
364,277	4,26
364,641	4,23
365,005	4,3
365,369	4,37
365,733	4,51
366,097	4,64
366,461	4,68
366,825	4,76
367,189	4,81
367,553	4,91
367,916	5,05
368,28	5,23
368,644	5,33
369,007	5,43
369,371	5,55
369,734	5,69
370,098	5,79
370,461	5,86
370,825	5,91
371,188	5,93
371,552	5,98
371,915	6,04
372,278	6,17
372,642	6,29
373,005	6,42
373,368	6,53
373,731	6,6
374,094	6,72
374,457	6,82
374,82	6,96
375,183	7,03
375,546	7,11
375,909	7,15
376,272	7,26
376,635	7,37
376,998	7,42
377,361	7,44
377,723	7,53
378,086	7,64
378,449	7,73
378,811	7,79
379,174	7,92
379,537	8,03
379,899	8,05
380,262	8,08
380,624	8,11
380,987	8,15
381,349	8,22
381,711	8,29
382,074	8,37
382,436	8,46
382,798	8,64
383,16	8,73
383,522	8,82
383,884	8,85
384,247	8,88
384,609	8,97
384,971	9,05
385,333	9,07
385,695	9,07
386,056	9,1
386,418	9,12
386,78	9,12
387,142	9,13
387,504	9,22
387,865	9,29
388,227	9,33
388,589	9,37
388,95	9,46
389,312	9,48
389,673	9,49
390,035	9,47
390,396	9,43
390,758	9,44
391,119	9,46
391,48	9,49
391,842	9,54
392,203	9,55
392,564	9,54
392,925	9,62
393,286	9,68
393,648	9,74
394,009	9,8
394,37	9,85
394,731	9,89
395,092	9,9
395,452	9,9
395,813	9,96
396,174	9,99
396,535	9,96
396,896	9,96
397,257	10,01
397,617	10,08
397,978	10,11
398,338	10,14
398,699	10,19
399,06	10,26
399,42	10,25
399,781	10,25
400,141	10,29
400,501	10,29
400,862	10,31
401,222	10,3
401,582	10,3
401,943	10,33
402,303	10,34
402,663	10,35
403,023	10,35
403,383	10,34
403,743	10,33
404,103	10,37
404,463	10,42
404,823	10,46
405,183	10,47
405,543	10,5
405,903	10,51
406,262	10,48
406,622	10,44
406,982	10,47
407,342	10,5
407,701	10,53
408,061	10,53
408,42	10,51
408,78	10,55
409,139	10,55
409,499	10,53
409,858	10,55
410,217	10,6
410,577	10,6
410,936	10,59
411,295	10,59
411,655	10,58
412,014	10,55
412,373	10,49
412,732	10,44
413,091	10,41
413,45	10,38
413,809	10,32
414,168	10,3
414,527	10,23
414,886	10,18
415,245	10,17
415,603	10,16
415,962	10,12
416,321	10,09
416,679	10,08
417,038	10,05
417,397	10,01
417,755	9,96
418,114	9,94
418,472	9,94
418,831	9,93
419,189	9,91
419,547	9,88
419,906	9,86
420,264	9,84
420,622	9,82
420,981	9,82
421,339	9,84
421,697	9,83
422,055	9,84
422,413	9,86
422,771	9,87
423,129	9,87
423,487	9,9
423,845	9,93
424,203	9,94
424,56	9,97
424,918	10
425,276	10,05
425,634	10,09
425,991	10,11
426,349	10,14
426,707	10,19
427,064	10,24
427,422	10,27
427,779	10,33
428,137	10,37
428,494	10,44
428,851	10,45
429,209	10,48
429,566	10,51
429,923	10,5
430,28	10,5
430,637	10,51
430,995	10,5
431,352	10,47
431,709	10,46
432,066	10,46
432,423	10,46
432,78	10,44
433,137	10,44
433,493	10,44
433,85	10,47
434,207	10,45
434,564	10,45
434,92	10,46
435,277	10,48
435,634	10,48
435,99	10,45
436,347	10,46
436,703	10,48
437,06	10,47
437,416	10,48
437,773	10,49
438,129	10,47
438,485	10,49
438,841	10,49
439,198	10,5
439,554	10,49
439,91	10,51
440,266	10,52
440,622	10,52
440,978	10,52
441,334	10,49
441,69	10,47
442,046	10,46
442,402	10,45
442,758	10,41
443,113	10,4
443,469	10,39
443,825	10,39
444,181	10,38
444,536	10,4
444,892	10,4
445,247	10,41
445,603	10,43
445,958	10,44
446,314	10,46
446,669	10,48
447,025	10,5
447,38	10,51
447,735	10,51
448,09	10,53
448,446	10,54
448,801	10,56
449,156	10,59
449,511	10,62
449,866	10,65
450,221	10,7
450,576	10,75
450,931	10,81
451,286	10,86
451,641	10,91
451,995	10,95
452,35	11,01
452,705	11,04
453,06	11,06
453,414	11,08
453,769	11,08
454,123	11,07
454,478	11,06
454,832	11,07
455,187	11,05
455,541	11,02
455,896	10,99
456,25	10,96
456,604	10,92
456,958	10,9
457,313	10,87
457,667	10,87
458,021	10,86
458,375	10,88
458,729	10,9
459,083	10,9
459,437	10,89
459,791	10,86
460,145	10,86
460,499	10,85
460,852	10,84
461,206	10,85
461,56	10,85
461,914	10,86
462,267	10,85
462,621	10,88
462,974	10,9
463,328	10,92
463,681	10,96
464,035	10,99
464,388	11,01
464,742	11,05
465,095	11,06
465,448	11,07
465,801	11,05
466,155	11,02
466,508	11
466,861	10,99
467,214	11
467,567	10,99
467,92	11,01
468,273	11,02
468,626	11,02
468,979	11
469,332	11,01
469,684	11
470,037	11,01
470,39	11,01
470,743	11,03
471,095	11,03
471,448	11,05
471,8	11,08
472,153	11,09
472,505	11,1
472,858	11,1
473,21	11,12
473,562	11,13
473,915	11,16
474,267	11,17
474,619	11,16
474,971	11,13
475,324	11,12
475,676	11,13
476,028	11,14
476,38	11,15
476,732	11,14
477,084	11,16
477,436	11,14
477,787	11,13
478,139	11,1
478,491	11,1
478,843	11,08
479,195	11,07
479,546	11,01
479,898	10,95
480,249	10,92
480,601	10,88
480,952	10,84
481,304	10,82
481,655	10,83
482,007	10,83
482,358	10,83
482,709	10,81
483,061	10,81
483,412	10,8
483,763	10,78
484,114	10,77
484,465	10,75
484,816	10,74
485,167	10,73
485,518	10,74
485,869	10,75
486,22	10,75
486,571	10,74
486,922	10,76
487,272	10,78
487,623	10,79
487,974	10,79
488,324	10,8
488,675	10,8
489,025	10,78
489,376	10,78
489,726	10,79
490,077	10,81
490,427	10,82
490,778	10,83
491,128	10,86
491,478	10,88
491,828	10,92
492,179	10,95
492,529	10,98
492,879	10,99
493,229	11,02
493,579	11,05
493,929	11,07
494,279	11,08
494,629	11,11
494,979	11,14
495,328	11,19
495,678	11,25
496,028	11,29
496,378	11,33
496,727	11,38
497,077	11,41
497,426	11,44
497,776	11,43
498,125	11,44
498,475	11,45
498,824	11,45
499,174	11,45
499,523	11,46
499,872	11,46
500,221	11,45
500,571	11,44
500,92	11,44
501,269	11,44
501,618	11,45
501,967	11,46
502,316	11,47
502,665	11,49
503,014	11,48
503,363	11,5
503,711	11,5
504,06	11,48
504,409	11,5
504,758	11,47
505,106	11,48
505,455	11,5
505,803	11,49
506,152	11,48
506,5	11,47
506,849	11,48
507,197	11,48
507,546	11,48
507,894	11,49
508,242	11,49
508,59	11,49
508,939	11,46
509,287	11,45
509,635	11,46
509,983	11,45
510,331	11,46
510,679	11,47
511,027	11,48
511,375	11,48
511,723	11,48
512,07	11,51
512,418	11,51
512,766	11,52
513,114	11,54
513,461	11,57
513,809	11,58
514,156	11,57
514,504	11,57
514,851	11,59
515,199	11,56
515,546	11,55
515,893	11,56
516,241	11,57
516,588	11,55
516,935	11,54
517,282	11,54
517,63	11,53
517,977	11,54
518,324	11,55
518,671	11,56
519,018	11,56
519,365	11,53
519,711	11,54
520,058	11,54
520,405	11,55
520,752	11,54
521,099	11,55
521,445	11,58
521,792	11,59
522,138	11,57
522,485	11,57
522,832	11,58
523,178	11,58
523,524	11,59
523,871	11,6
524,217	11,61
524,563	11,58
524,91	11,54
525,256	11,5
525,602	11,46
525,948	11,45
526,294	11,45
526,64	11,44
526,986	11,44
527,332	11,43
527,678	11,43
528,024	11,43
528,37	11,44
528,716	11,42
529,061	11,42
529,407	11,44
529,753	11,44
530,098	11,45
530,444	11,44
530,789	11,44
531,135	11,45
531,48	11,45
531,826	11,46
532,171	11,49
532,516	11,51
532,862	11,53
533,207	11,54
533,552	11,55
533,897	11,57
534,242	11,59
534,587	11,6
534,932	11,62
535,277	11,62
535,622	11,62
535,967	11,64
536,312	11,65
536,657	11,66
537,001	11,68
537,346	11,69
537,691	11,68
538,035	11,64
538,38	11,61
538,724	11,62
539,069	11,63
539,413	11,63
539,758	11,62
540,102	11,64
540,446	11,64
540,791	11,63
541,135	11,64
541,479	11,65
541,823	11,65
542,167	11,64
542,512	11,66
542,856	11,64
543,2	11,63
543,543	11,63
543,887	11,63
544,231	11,64
544,575	11,65
544,919	11,68
545,262	11,74
545,606	11,77
545,95	11,78
546,293	11,78
546,637	11,8
546,98	11,85
547,324	11,86
547,667	11,89
548,011	11,92
548,354	11,94
548,697	11,92
549,04	11,93
549,384	11,93
549,727	11,91
550,07	11,93
550,413	11,94
550,756	11,94
551,099	11,94
551,442	11,94
551,785	11,94
552,128	11,94
552,47	11,92
552,813	11,93
553,156	11,93
553,499	11,92
553,841	11,92
554,184	11,92
554,526	11,9
554,869	11,89
555,211	11,87
555,554	11,83
555,896	11,82
556,238	11,8
556,581	11,76
556,923	11,72
557,265	11,71
557,607	11,69
557,949	11,7
558,291	11,67
558,633	11,66
558,975	11,65
559,317	11,63
559,659	11,62
560,001	11,6
560,343	11,56
560,685	11,54
561,026	11,51
561,368	11,46
561,71	11,41
562,051	11,37
562,393	11,36
562,734	11,33
563,076	11,32
563,417	11,31
563,759	11,31
564,1	11,32
564,441	11,33
564,782	11,33
565,124	11,28
565,465	11,27
565,806	11,24
566,147	11,2
566,488	11,17
566,829	11,16
567,17	11,16
567,511	11,14
567,851	11,14
568,192	11,1
568,533	11,11
568,874	11,12
569,214	11,13
569,555	11,12
569,895	11,1
570,236	11,07
570,576	11,05
570,917	11,04
571,257	11,01
571,598	10,99
571,938	10,97
572,278	10,97
572,618	10,97
572,959	10,96
573,299	10,97
573,639	10,98
573,979	10,96
574,319	10,94
574,659	10,95
574,999	10,92
575,339	10,92
575,678	10,9
576,018	10,89
576,358	10,87
576,698	10,85
577,037	10,86
577,377	10,86
577,716	10,85
578,056	10,82
578,395	10,81
578,735	10,78
579,074	10,77
579,413	10,76
579,753	10,71
580,092	10,68
580,431	10,63
580,77	10,61
581,109	10,57
581,448	10,51
581,787	10,47
582,126	10,47
582,465	10,47
582,804	10,46
583,143	10,45
583,482	10,46
583,82	10,46
584,159	10,43
584,498	10,41
584,836	10,39
585,175	10,41
585,514	10,4
585,852	10,4
586,19	10,41
586,529	10,4
586,867	10,42
587,205	10,45
587,544	10,47
587,882	10,47
588,22	10,49
588,558	10,54
588,896	10,55
589,234	10,53
589,572	10,52
589,91	10,52
590,248	10,49
590,586	10,44
590,924	10,43
591,262	10,42
591,599	10,43
591,937	10,47
592,275	10,47
592,612	10,49
592,95	10,49
593,287	10,5
593,625	10,48
593,962	10,48
594,299	10,5
594,637	10,5
594,974	10,52
595,311	10,54
595,648	10,54
595,985	10,56
596,322	10,56
596,659	10,58
596,996	10,58
597,333	10,56
597,67	10,57
598,007	10,56
598,344	10,58
598,681	10,59
599,017	10,56
599,354	10,52
599,691	10,48
600,027	10,5
600,364	10,48
600,7	10,53
601,037	10,55
601,373	10,57
601,71	10,59
602,046	10,58
602,382	10,59
602,718	10,6
603,054	10,59
603,391	10,61
603,727	10,62
604,063	10,63
604,399	10,67
604,735	10,69
605,071	10,7
605,406	10,69
605,742	10,7
606,078	10,74
606,414	10,81
606,749	10,86
607,085	10,88
607,421	10,9
607,756	10,9
608,092	10,89
608,427	10,9
608,762	10,89
609,098	10,87
609,433	10,83
609,768	10,81
610,104	10,81
610,439	10,78
610,774	10,76
611,109	10,75
611,444	10,72
611,779	10,69
612,114	10,72
612,449	10,74
612,784	10,71
613,118	10,66
613,453	10,63
613,788	10,57
614,123	10,52
614,457	10,49
614,792	10,44
615,126	10,43
615,461	10,39
615,795	10,39
616,13	10,41
616,464	10,42
616,798	10,41
617,132	10,39
617,467	10,41
617,801	10,4
618,135	10,41
618,469	10,43
618,803	10,45
619,137	10,44
619,471	10,45
619,805	10,46
620,139	10,47
620,472	10,47
620,806	10,47
621,14	10,45
621,473	10,42
621,807	10,42
622,141	10,39
622,474	10,39
622,808	10,37
623,141	10,35
623,474	10,34
623,808	10,35
624,141	10,4
624,474	10,44
624,807	10,47
625,141	10,48
625,474	10,51
625,807	10,53
626,14	10,55
626,473	10,56
626,806	10,56
627,138	10,55
627,471	10,54
627,804	10,57
628,137	10,62
628,469	10,63
628,802	10,65
629,135	10,69
629,467	10,69
629,8	10,69
630,132	10,7
630,465	10,7
630,797	10,7
631,129	10,68
631,461	10,66
631,794	10,66
632,126	10,65
632,458	10,61
632,79	10,57
633,122	10,54
633,454	10,49
633,786	10,49
634,118	10,51
634,45	10,53
634,781	10,53
635,113	10,53
635,445	10,55
635,777	10,54
636,108	10,52
636,44	10,5
636,771	10,5
637,103	10,5
637,434	10,51
637,765	10,51
638,097	10,49
638,428	10,49
638,759	10,48
639,09	10,44
639,422	10,46
639,753	10,44
640,084	10,44
640,415	10,47
640,746	10,47
641,077	10,47
641,407	10,46
641,738	10,42
642,069	10,36
642,4	10,33
642,73	10,32
643,061	10,31
643,392	10,3
643,722	10,34
644,053	10,34
644,383	10,32
644,713	10,33
645,044	10,32
645,374	10,34
645,704	10,32
646,034	10,33
646,365	10,33
646,695	10,34
647,025	10,39
647,355	10,39
647,685	10,38
648,015	10,39
648,344	10,38
648,674	10,39
