Data from zc74042_3_Reflection_00002.txt Node
Date: Thu Mar 12 14:50:40 ART 2020
User: Ana
Spectrometer: USB2E3644
Trigger mode: 4
Integration Time (sec): 5,000000E-2
Scans to average: 10
Electric dark correction enabled: true
Nonlinearity correction enabled: false
Boxcar width: 10
XAxis mode: Wavelengths
Number of Pixels in Spectrum: 2048
>>>>>Begin Spectral Data<<<<<
178,315	160,29
178,696	161,64
179,076	164,45
179,457	181,1
179,838	171,21
180,218	172,31
180,599	303,85
180,979	67,86
181,36	56,98
181,74	55,42
182,121	63,54
182,501	88,16
182,881	76,3
183,262	75,8
183,642	78,37
184,022	85,15
184,402	93,35
184,783	98,3
185,163	101,53
185,543	102,97
185,923	105,38
186,303	107,34
186,683	106,97
187,063	104,2
187,443	102,33
187,823	98,47
188,203	96,03
188,583	94,56
188,963	95,76
189,343	98,83
189,723	100,1
190,102	101,9
190,482	106,94
190,862	109,36
191,242	109,76
191,621	107,61
192,001	105,75
192,38	103,91
192,76	104,62
193,14	106,53
193,519	106,75
193,898	106,65
194,278	108,08
194,657	109,07
195,037	110,03
195,416	111,52
195,795	112,57
196,175	112,53
196,554	111,28
196,933	108,65
197,312	107,27
197,692	106,52
198,071	105,41
198,45	103,98
198,829	104,4
199,208	105,28
199,587	106,55
199,966	105,79
200,345	105,03
200,724	104,32
201,103	103,51
201,482	102,61
201,86	103,01
202,239	103,01
202,618	102,06
202,997	100,9
203,375	99,21
203,754	98,25
204,133	98,36
204,511	99,21
204,89	99,12
205,269	98,72
205,647	100,15
206,026	101,29
206,404	101,84
206,782	101,1
207,161	99,63
207,539	98,37
207,918	99,31
208,296	99,84
208,674	100,26
209,052	100,26
209,431	100,59
209,809	99,73
210,187	98,47
210,565	97,65
210,943	98,06
211,321	98,88
211,699	99,51
212,077	99,84
212,455	100,28
212,833	100,85
213,211	100,86
213,589	99,71
213,967	99
214,345	98,65
214,722	99,12
215,1	101,12
215,478	102,19
215,855	101,85
216,233	102,26
216,611	102,97
216,988	104,99
217,366	106,06
217,743	105,83
218,121	106,63
218,498	108,54
218,876	109,99
219,253	110,75
219,631	111,67
220,008	111,91
220,385	111,87
220,762	112,39
221,14	114,84
221,517	115,96
221,894	116,47
222,271	119,18
222,648	122,2
223,025	123,45
223,402	123,93
223,78	125,27
224,157	126,09
224,533	125,5
224,91	124,65
225,287	125,55
225,664	130,13
226,041	134,85
226,418	137,78
226,795	138,65
227,171	141,16
227,548	144,61
227,925	149,01
228,301	152,72
228,678	155,36
229,055	154,7
229,431	155,84
229,808	159,58
230,184	161,26
230,561	162,29
230,937	163,8
231,313	167,65
231,69	170,6
232,066	169,65
232,442	171,13
232,819	175,09
233,195	175,45
233,571	176,18
233,947	176,41
234,323	176,92
234,699	179,64
235,075	180,7
235,451	182,02
235,827	183,82
236,203	185,62
236,579	189,84
236,955	199,26
237,331	211,05
237,707	225,89
238,083	252,24
238,459	300,15
238,834	380,2
239,21	533,24
239,586	833,48
239,961	1690
240,337	5163,89
240,713	-10305,56
241,088	-2904,69
241,464	-2119,32
241,839	-1592,37
242,215	-955,05
242,59	-559,36
242,965	-310,48
243,341	-184,99
243,716	-125,03
244,091	-99,12
244,467	-86,48
244,842	-79,26
245,217	-73,17
245,592	-69,77
245,967	-70,32
246,343	-70,51
246,718	-71,51
247,093	-75,19
247,468	-78,19
247,843	-77,98
248,218	-75,29
248,593	-70,83
248,967	-65,72
249,342	-63,11
249,717	-61,84
250,092	-61,38
250,467	-62,96
250,841	-68,19
251,216	-77,43
251,591	-92,01
251,965	-105,06
252,34	-114
252,714	-123,45
253,089	-131,27
253,463	-138,02
253,838	-136,22
254,212	-130,01
254,587	-120,54
254,961	-104,76
255,335	-89,51
255,71	-74,8
256,084	-59,07
256,458	-47,33
256,832	-39,97
257,206	-35,79
257,581	-33,39
257,955	-32,05
258,329	-30,52
258,703	-28,59
259,077	-27,7
259,451	-26,77
259,825	-26,71
260,199	-27,07
260,572	-27,03
260,946	-27,14
261,32	-26,65
261,694	-25,88
262,068	-25,58
262,441	-25,56
262,815	-25,9
263,189	-25,98
263,562	-26,68
263,936	-29,16
264,309	-32,68
264,683	-36,2
265,056	-37,93
265,43	-38,64
265,803	-38,26
266,176	-37,88
266,55	-37,88
266,923	-36,9
267,296	-35,75
267,67	-33,64
268,043	-31,95
268,416	-29,91
268,789	-27,87
269,162	-26,04
269,535	-24,38
269,908	-23,11
270,281	-22,14
270,654	-21,8
271,027	-21,96
271,4	-21,99
271,773	-21,6
272,146	-21,29
272,519	-20,93
272,891	-20,77
273,264	-20,91
273,637	-21,2
274,01	-21,2
274,382	-21,43
274,755	-21,63
275,127	-21,82
275,5	-22,23
275,872	-22,1
276,245	-22,05
276,617	-22,6
276,99	-23,21
277,362	-24,22
277,734	-24,51
278,107	-24,66
278,479	-24,36
278,851	-23,82
279,223	-23,5
279,596	-23,27
279,968	-23,14
280,34	-22,87
280,712	-22,51
281,084	-21,69
281,456	-20,61
281,828	-19,36
282,2	-18,04
282,572	-17,18
282,944	-16,52
283,315	-16,16
283,687	-15,91
284,059	-15,98
284,431	-15,83
284,802	-15,37
285,174	-14,92
285,546	-14,75
285,917	-14,4
286,289	-14,12
286,66	-13,99
287,032	-13,58
287,403	-13,26
287,775	-13,09
288,146	-13,22
288,518	-13,41
288,889	-13,42
289,26	-13,53
289,632	-14,02
290,003	-14,43
290,374	-14,61
290,745	-14,71
291,116	-14,72
291,487	-14,65
291,858	-14,43
292,229	-14,12
292,6	-13,94
292,971	-13,41
293,342	-12,95
293,713	-12,47
294,084	-12,01
294,455	-11,45
294,826	-11,25
295,196	-11,27
295,567	-11,38
295,938	-11,17
296,308	-10,93
296,679	-10,79
297,05	-10,62
297,42	-10,3
297,791	-9,97
298,161	-9,82
298,532	-9,64
298,902	-9,43
299,272	-9,36
299,643	-9,29
300,013	-9,04
300,383	-8,79
300,754	-8,77
301,124	-8,83
301,494	-9,06
301,864	-9,2
302,234	-9,48
302,604	-9,69
302,974	-9,76
303,344	-9,59
303,714	-9,4
304,084	-8,96
304,454	-8,67
304,824	-8,61
305,194	-8,66
305,563	-8,69
305,933	-8,53
306,303	-8,37
306,673	-8,21
307,042	-7,99
307,412	-7,69
307,781	-7,39
308,151	-7,18
308,521	-6,98
308,89	-6,71
309,259	-6,51
309,629	-6,44
309,998	-6,46
310,368	-6,37
310,737	-6,18
311,106	-6,06
311,475	-5,93
311,845	-5,98
312,214	-5,9
312,583	-5,79
312,952	-5,84
313,321	-5,93
313,69	-5,83
314,059	-5,7
314,428	-5,65
314,797	-5,61
315,166	-5,72
315,535	-5,94
315,904	-6,27
316,272	-6,51
316,641	-6,68
317,01	-6,58
317,379	-6,52
317,747	-6,24
318,116	-5,95
318,484	-5,78
318,853	-5,69
319,221	-5,76
319,59	-5,79
319,958	-5,76
320,327	-5,78
320,695	-5,57
321,063	-5,2
321,432	-4,95
321,8	-4,7
322,168	-4,51
322,536	-4,54
322,905	-4,25
323,273	-3,9
323,641	-3,58
324,009	-3,4
324,377	-3,32
324,745	-3,34
325,113	-3,24
325,481	-3,06
325,849	-2,9
326,216	-2,66
326,584	-2,41
326,952	-2,24
327,32	-2,04
327,687	-1,92
328,055	-1,65
328,423	-1,47
328,79	-1,42
329,158	-1,43
329,525	-1,53
329,893	-1,57
330,26	-1,45
330,628	-1,46
330,995	-1,51
331,362	-1,49
331,73	-1,36
332,097	-1,23
332,464	-1,05
332,831	-0,87
333,199	-0,84
333,566	-0,79
333,933	-0,78
334,3	-0,75
334,667	-0,63
335,034	-0,52
335,401	-0,46
335,768	-0,41
336,135	-0,33
336,502	-0,26
336,868	-0,11
337,235	0,04
337,602	0,19
337,969	0,32
338,335	0,5
338,702	0,69
339,069	0,76
339,435	0,74
339,802	0,84
340,168	0,89
340,535	0,9
340,901	0,79
341,267	0,68
341,634	0,71
342	0,75
342,366	0,82
342,733	0,82
343,099	0,9
343,465	0,88
343,831	0,84
344,197	0,84
344,563	0,75
344,929	0,72
345,295	0,81
345,661	0,92
346,027	0,9
346,393	0,84
346,759	0,89
347,125	0,98
347,491	0,97
347,856	0,92
348,222	0,88
348,588	1,03
348,953	1,18
349,319	1,17
349,684	1,2
350,05	1,19
350,415	1,26
350,781	1,34
351,146	1,45
351,512	1,55
351,877	1,64
352,242	1,7
352,608	1,73
352,973	1,73
353,338	1,76
353,703	1,86
354,068	1,92
354,433	2
354,798	2,04
355,164	2,1
355,528	2,24
355,893	2,33
356,258	2,36
356,623	2,43
356,988	2,53
357,353	2,62
357,718	2,7
358,082	2,75
358,447	2,76
358,812	2,85
359,176	2,93
359,541	2,99
359,905	3,1
360,27	3,21
360,634	3,29
360,999	3,34
361,363	3,33
361,728	3,41
362,092	3,42
362,456	3,45
362,821	3,53
363,185	3,57
363,549	3,63
363,913	3,69
364,277	3,74
364,641	3,74
365,005	3,76
365,369	3,75
365,733	3,75
366,097	3,83
366,461	3,85
366,825	3,89
367,189	3,94
367,553	3,99
367,916	4,12
368,28	4,21
368,644	4,29
369,007	4,39
369,371	4,47
369,734	4,6
370,098	4,72
370,461	4,78
370,825	4,8
371,188	4,84
371,552	4,9
371,915	4,95
372,278	5,11
372,642	5,21
373,005	5,37
373,368	5,52
373,731	5,61
374,094	5,71
374,457	5,8
374,82	5,91
375,183	5,98
375,546	5,99
375,909	6,04
376,272	6,15
376,635	6,27
376,998	6,32
377,361	6,38
377,723	6,43
378,086	6,48
378,449	6,58
378,811	6,68
379,174	6,78
379,537	6,85
379,899	6,86
380,262	6,91
380,624	6,95
380,987	7
381,349	7,04
381,711	7,1
382,074	7,15
382,436	7,2
382,798	7,29
383,16	7,32
383,522	7,37
383,884	7,38
384,247	7,37
384,609	7,41
384,971	7,44
385,333	7,45
385,695	7,48
386,056	7,53
386,418	7,54
386,78	7,53
387,142	7,54
387,504	7,54
387,865	7,56
388,227	7,55
388,589	7,55
388,95	7,57
389,312	7,58
389,673	7,59
390,035	7,59
390,396	7,56
390,758	7,59
391,119	7,59
391,48	7,6
391,842	7,6
392,203	7,61
392,564	7,62
392,925	7,67
393,286	7,7
393,648	7,72
394,009	7,74
394,37	7,74
394,731	7,76
395,092	7,81
395,452	7,84
395,813	7,89
396,174	7,91
396,535	7,9
396,896	7,89
397,257	7,93
397,617	7,98
397,978	8
398,338	8,02
398,699	8,05
399,06	8,12
399,42	8,17
399,781	8,19
400,141	8,18
400,501	8,2
400,862	8,2
401,222	8,19
401,582	8,2
401,943	8,19
402,303	8,21
402,663	8,2
403,023	8,2
403,383	8,19
403,743	8,19
404,103	8,22
404,463	8,25
404,823	8,3
405,183	8,3
405,543	8,34
405,903	8,35
406,262	8,37
406,622	8,35
406,982	8,33
407,342	8,36
407,701	8,39
408,061	8,38
408,42	8,38
408,78	8,39
409,139	8,41
409,499	8,43
409,858	8,45
410,217	8,46
410,577	8,47
410,936	8,46
411,295	8,45
411,655	8,44
412,014	8,41
412,373	8,35
412,732	8,29
413,091	8,23
413,45	8,18
413,809	8,12
414,168	8,06
414,527	8,02
414,886	7,95
415,245	7,9
415,603	7,88
415,962	7,84
416,321	7,8
416,679	7,77
417,038	7,72
417,397	7,67
417,755	7,63
418,114	7,59
418,472	7,57
418,831	7,55
419,189	7,54
419,547	7,53
419,906	7,51
420,264	7,49
420,622	7,47
420,981	7,47
421,339	7,46
421,697	7,46
422,055	7,45
422,413	7,48
422,771	7,49
423,129	7,49
423,487	7,52
423,845	7,54
424,203	7,55
424,56	7,59
424,918	7,64
425,276	7,67
425,634	7,7
425,991	7,74
426,349	7,78
426,707	7,8
427,064	7,83
427,422	7,87
427,779	7,93
428,137	7,99
428,494	8,07
428,851	8,12
429,209	8,14
429,566	8,17
429,923	8,16
430,28	8,16
430,637	8,18
430,995	8,15
431,352	8,14
431,709	8,14
432,066	8,14
432,423	8,13
432,78	8,13
433,137	8,15
433,493	8,13
433,85	8,15
434,207	8,13
434,564	8,12
434,92	8,13
435,277	8,1
435,634	8,07
435,99	8,03
436,347	8,01
436,703	8,01
437,06	8
437,416	7,99
437,773	7,97
438,129	7,95
438,485	7,96
438,841	7,96
439,198	7,96
439,554	7,95
439,91	7,95
440,266	7,96
440,622	7,95
440,978	7,95
441,334	7,92
441,69	7,92
442,046	7,9
442,402	7,88
442,758	7,88
443,113	7,87
443,469	7,87
443,825	7,86
444,181	7,87
444,536	7,89
444,892	7,9
445,247	7,92
445,603	7,94
445,958	7,96
446,314	7,97
446,669	7,97
447,025	7,99
447,38	7,98
447,735	7,99
448,09	8
448,446	8,02
448,801	8,04
449,156	8,06
449,511	8,08
449,866	8,13
450,221	8,17
450,576	8,22
450,931	8,26
451,286	8,29
451,641	8,31
451,995	8,33
452,35	8,37
452,705	8,38
453,06	8,38
453,414	8,38
453,769	8,37
454,123	8,38
454,478	8,39
454,832	8,4
455,187	8,39
455,541	8,36
455,896	8,33
456,25	8,3
456,604	8,27
456,958	8,26
457,313	8,23
457,667	8,19
458,021	8,19
458,375	8,2
458,729	8,22
459,083	8,24
459,437	8,24
459,791	8,23
460,145	8,23
460,499	8,25
460,852	8,24
461,206	8,26
461,56	8,26
461,914	8,25
462,267	8,25
462,621	8,26
462,974	8,27
463,328	8,3
463,681	8,33
464,035	8,37
464,388	8,38
464,742	8,4
465,095	8,43
465,448	8,44
465,801	8,42
466,155	8,41
466,508	8,39
466,861	8,38
467,214	8,38
467,567	8,38
467,92	8,38
468,273	8,39
468,626	8,37
468,979	8,37
469,332	8,38
469,684	8,37
470,037	8,37
470,39	8,38
470,743	8,39
471,095	8,37
471,448	8,37
471,8	8,39
472,153	8,41
472,505	8,41
472,858	8,42
473,21	8,45
473,562	8,46
473,915	8,49
474,267	8,49
474,619	8,47
474,971	8,47
475,324	8,45
475,676	8,47
476,028	8,47
476,38	8,47
476,732	8,47
477,084	8,47
477,436	8,47
477,787	8,45
478,139	8,43
478,491	8,45
478,843	8,43
479,195	8,41
479,546	8,38
479,898	8,34
480,249	8,27
480,601	8,21
480,952	8,18
481,304	8,15
481,655	8,13
482,007	8,11
482,358	8,1
482,709	8,08
483,061	8,06
483,412	8,06
483,763	8,05
484,114	8,05
484,465	8,05
484,816	8,04
485,167	8,04
485,518	8,04
485,869	8,03
486,22	8,03
486,571	8,02
486,922	8,02
487,272	8,02
487,623	8,05
487,974	8,07
488,324	8,08
488,675	8,08
489,025	8,08
489,376	8,1
489,726	8,11
490,077	8,13
490,427	8,15
490,778	8,16
491,128	8,18
491,478	8,19
491,828	8,21
492,179	8,23
492,529	8,26
492,879	8,29
493,229	8,31
493,579	8,34
493,929	8,36
494,279	8,38
494,629	8,4
494,979	8,41
495,328	8,43
495,678	8,46
496,028	8,51
496,378	8,55
496,727	8,58
497,077	8,61
497,426	8,62
497,776	8,61
498,125	8,62
498,475	8,61
498,824	8,62
499,174	8,61
499,523	8,63
499,872	8,63
500,221	8,62
500,571	8,63
500,92	8,63
501,269	8,64
501,618	8,67
501,967	8,69
502,316	8,69
502,665	8,68
503,014	8,68
503,363	8,68
503,711	8,69
504,06	8,69
504,409	8,68
504,758	8,68
505,106	8,69
505,455	8,69
505,803	8,69
506,152	8,68
506,5	8,69
506,849	8,68
507,197	8,66
507,546	8,66
507,894	8,66
508,242	8,67
508,59	8,66
508,939	8,63
509,287	8,63
509,635	8,63
509,983	8,66
510,331	8,68
510,679	8,7
511,027	8,7
511,375	8,72
511,723	8,75
512,07	8,77
512,418	8,79
512,766	8,81
513,114	8,84
513,461	8,86
513,809	8,87
514,156	8,86
514,504	8,89
514,851	8,87
515,199	8,87
515,546	8,83
515,893	8,83
516,241	8,85
516,588	8,85
516,935	8,86
517,282	8,85
517,63	8,86
517,977	8,85
518,324	8,85
518,671	8,85
519,018	8,85
519,365	8,85
519,711	8,85
520,058	8,85
520,405	8,84
520,752	8,85
521,099	8,85
521,445	8,86
521,792	8,87
522,138	8,87
522,485	8,86
522,832	8,88
523,178	8,9
523,524	8,88
523,871	8,89
524,217	8,89
524,563	8,88
524,91	8,83
525,256	8,79
525,602	8,77
525,948	8,74
526,294	8,72
526,64	8,69
526,986	8,67
527,332	8,65
527,678	8,64
528,024	8,65
528,37	8,65
528,716	8,64
529,061	8,64
529,407	8,64
529,753	8,64
530,098	8,63
530,444	8,63
530,789	8,64
531,135	8,63
531,48	8,62
531,826	8,62
532,171	8,63
532,516	8,66
532,862	8,67
533,207	8,69
533,552	8,71
533,897	8,73
534,242	8,74
534,587	8,75
534,932	8,76
535,277	8,76
535,622	8,76
535,967	8,78
536,312	8,79
536,657	8,81
537,001	8,84
537,346	8,85
537,691	8,87
538,035	8,86
538,38	8,87
538,724	8,88
539,069	8,88
539,413	8,88
539,758	8,88
540,102	8,88
540,446	8,87
540,791	8,86
541,135	8,87
541,479	8,88
541,823	8,89
542,167	8,88
542,512	8,92
542,856	8,91
543,2	8,91
543,543	8,91
543,887	8,91
544,231	8,92
544,575	8,93
544,919	8,91
545,262	8,94
545,606	8,94
545,95	8,96
546,293	8,96
546,637	8,97
546,98	8,98
547,324	8,98
547,667	9,02
548,011	9,03
548,354	9,05
548,697	9,06
549,04	9,05
549,384	9,06
549,727	9,01
550,07	9,04
550,413	9,02
550,756	9,04
551,099	9,06
551,442	9,06
551,785	9,08
552,128	9,09
552,47	9,1
552,813	9,11
553,156	9,1
553,499	9,1
553,841	9,11
554,184	9,11
554,526	9,1
554,869	9,06
555,211	9,05
555,554	9,03
555,896	8,99
556,238	8,99
556,581	8,98
556,923	8,98
557,265	8,96
557,607	8,96
557,949	8,93
558,291	8,92
558,633	8,88
558,975	8,84
559,317	8,81
559,659	8,77
560,001	8,74
560,343	8,72
560,685	8,7
561,026	8,67
561,368	8,65
561,71	8,63
562,051	8,64
562,393	8,64
562,734	8,6
563,076	8,61
563,417	8,6
563,759	8,58
564,1	8,56
564,441	8,53
564,782	8,51
565,124	8,5
565,465	8,49
565,806	8,47
566,147	8,46
566,488	8,45
566,829	8,46
567,17	8,46
567,511	8,44
567,851	8,42
568,192	8,4
568,533	8,39
568,874	8,41
569,214	8,39
569,555	8,37
569,895	8,36
570,236	8,35
570,576	8,32
570,917	8,3
571,257	8,29
571,598	8,28
571,938	8,27
572,278	8,25
572,618	8,22
572,959	8,22
573,299	8,21
573,639	8,2
573,979	8,19
574,319	8,18
574,659	8,2
574,999	8,2
575,339	8,2
575,678	8,2
576,018	8,17
576,358	8,14
576,698	8,11
577,037	8,11
577,377	8,08
577,716	8,08
578,056	8,09
578,395	8,08
578,735	8,07
579,074	8,05
579,413	8,02
579,753	8,01
580,092	7,97
580,431	7,94
580,77	7,93
581,109	7,88
581,448	7,85
581,787	7,79
582,126	7,78
582,465	7,75
582,804	7,72
583,143	7,71
583,482	7,71
583,82	7,74
584,159	7,73
584,498	7,73
584,836	7,71
585,175	7,7
585,514	7,71
585,852	7,72
586,19	7,72
586,529	7,72
586,867	7,71
587,205	7,74
587,544	7,74
587,882	7,74
588,22	7,76
588,558	7,77
588,896	7,81
589,234	7,8
589,572	7,78
589,91	7,78
590,248	7,76
590,586	7,77
590,924	7,74
591,262	7,77
591,599	7,79
591,937	7,8
592,275	7,79
592,612	7,79
592,95	7,79
593,287	7,81
593,625	7,84
593,962	7,86
594,299	7,88
594,637	7,92
594,974	7,95
595,311	7,99
595,648	8,01
595,985	8,01
596,322	8,02
596,659	8,06
596,996	8,08
597,333	8,09
597,67	8,09
598,007	8,1
598,344	8,09
598,681	8,1
599,017	8,11
599,354	8,12
599,691	8,14
600,027	8,16
600,364	8,17
600,7	8,19
601,037	8,2
601,373	8,21
601,71	8,2
602,046	8,23
602,382	8,21
602,718	8,21
603,054	8,21
603,391	8,23
603,727	8,22
604,063	8,23
604,399	8,23
604,735	8,25
605,071	8,25
605,406	8,25
605,742	8,25
606,078	8,27
606,414	8,27
606,749	8,27
607,085	8,28
607,421	8,3
607,756	8,3
608,092	8,29
608,427	8,3
608,762	8,31
609,098	8,28
609,433	8,29
609,768	8,27
610,104	8,26
610,439	8,24
610,774	8,26
611,109	8,24
611,444	8,22
611,779	8,2
612,114	8,17
612,449	8,17
612,784	8,15
613,118	8,14
613,453	8,12
613,788	8,08
614,123	8,03
614,457	7,98
614,792	7,93
615,126	7,94
615,461	7,89
615,795	7,86
616,13	7,83
616,464	7,81
616,798	7,82
617,132	7,82
617,467	7,82
617,801	7,82
618,135	7,82
618,469	7,83
618,803	7,86
619,137	7,91
619,471	7,92
619,805	7,89
620,139	7,89
620,472	7,92
620,806	7,93
621,14	7,93
621,473	7,95
621,807	7,94
622,141	7,94
622,474	7,95
622,808	7,95
623,141	7,95
623,474	7,97
623,808	8
624,141	8,04
624,474	8,1
624,807	8,14
625,141	8,15
625,474	8,17
625,807	8,16
626,14	8,14
626,473	8,16
626,806	8,2
627,138	8,19
627,471	8,17
627,804	8,19
628,137	8,23
628,469	8,26
628,802	8,29
629,135	8,28
629,467	8,28
629,8	8,28
630,132	8,29
630,465	8,29
630,797	8,29
631,129	8,25
631,461	8,2
631,794	8,17
632,126	8,18
632,458	8,2
632,79	8,21
633,122	8,23
633,454	8,21
633,786	8,19
634,118	8,16
634,45	8,2
634,781	8,17
635,113	8,13
635,445	8,1
635,777	8,09
636,108	8,08
636,44	8,08
636,771	8,08
637,103	8,09
637,434	8,07
637,765	8,03
638,097	8,02
638,428	8,02
638,759	8,01
639,09	7,98
639,422	7,93
639,753	7,9
640,084	7,89
640,415	7,9
640,746	7,93
641,077	7,96
641,407	7,98
641,738	8
642,069	8,04
642,4	8,07
642,73	8,06
643,061	8,07
643,392	8,09
643,722	8,1
644,053	8,11
644,383	8,12
644,713	8,14
645,044	8,14
645,374	8,16
645,704	8,17
646,034	8,15
646,365	8,18
646,695	8,19
647,025	8,23
647,355	8,25
647,685	8,28
648,015	8,29
648,344	8,28
648,674	8,3
649,004	8,32
649,334	8,32
649,663	8,38
649,993	8,41
650,323	8,43
650,652	8,42
650,982	8,42
651,311	8,41
651,64	8,4
651,97	8,45
652,299	8,45
652,628	8,46
652,958	8,51
653,287	8,53
653,616	8,54
653,945	8,53
654,274	8,52
654,603	8,49
654,932	8,47
655,261	8,49
655,589	8,53
655,918	8,55
656,247	8,58
656,576	8,58
656,904	8,6
657,233	8,61
657,561	8,65
657,89	8,69
658,218	8,72
658,547	8,78
658,875	8,76
659,203	8,78
659,532	8,81
659,86	8,83
660,188	8,84
660,516	8,86
660,844	8,9
661,172	8,92
661,5	8,95
661,828	9
662,156	9
662,484	8,95
662,811	8,89
663,139	8,85
663,467	8,85
663,794	8,83
664,122	8,85
664,45	8,83
664,777	8,81
665,104	8,85
665,432	8,83
665,759	8,85
666,086	8,85
