Data from zc74010_4_Reflection_00002.txt Node
Date: Thu Mar 12 15:01:17 ART 2020
User: Ana
Spectrometer: USB2E3644
Trigger mode: 4
Integration Time (sec): 5,000000E-2
Scans to average: 10
Electric dark correction enabled: true
Nonlinearity correction enabled: false
Boxcar width: 10
XAxis mode: Wavelengths
Number of Pixels in Spectrum: 2048
>>>>>Begin Spectral Data<<<<<
178,315	109,33
178,696	118,22
179,076	122,65
179,457	112,55
179,838	122,38
180,218	179,26
180,599	794,44
180,979	45,16
181,36	323,61
181,74	177,16
182,121	134,58
182,501	114,36
182,881	110,61
183,262	106,12
183,642	105,3
184,022	105,01
184,402	102,8
184,783	102,94
185,163	104,28
185,543	106,9
185,923	107,99
186,303	111,41
186,683	112,41
187,063	112,86
187,443	113,76
187,823	113,89
188,203	113,64
188,583	113,31
188,963	110,92
189,343	109,34
189,723	109,99
190,102	113,66
190,482	118,17
190,862	119,17
191,242	119,41
191,621	119,03
192,001	119,72
192,38	121,52
192,76	121,27
193,14	120,98
193,519	120,04
193,898	118,87
194,278	117,78
194,657	118,24
195,037	117,5
195,416	113,24
195,795	111,15
196,175	109,83
196,554	108,08
196,933	107,75
197,312	107,66
197,692	107,52
198,071	107,43
198,45	107,63
198,829	108,46
199,208	109,32
199,587	109,09
199,966	108,77
200,345	108,04
200,724	107,86
201,103	108,36
201,482	109,48
201,86	111,01
202,239	110,37
202,618	109,72
202,997	110,72
203,375	113,2
203,754	115,08
204,133	117,36
204,511	118,99
204,89	119,76
205,269	119,9
205,647	118,91
206,026	117,1
206,404	115,8
206,782	114,88
207,161	114,2
207,539	114,09
207,918	115
208,296	116,3
208,674	117,34
209,052	118,63
209,431	120
209,809	120,49
210,187	121
210,565	121,41
210,943	121,14
211,321	121,47
211,699	122,71
212,077	123,3
212,455	123,08
212,833	123,64
213,211	124,39
213,589	125,83
213,967	126,61
214,345	126,38
214,722	126,44
215,1	126,31
215,478	126,37
215,855	126,3
216,233	126,49
216,611	127,71
216,988	127,45
217,366	125,55
217,743	125,41
218,121	127,14
218,498	128,72
218,876	128,4
219,253	126,19
219,631	124,01
220,008	122,57
220,385	122,03
220,762	120,99
221,14	119,31
221,517	117,3
221,894	116,54
222,271	115,9
222,648	115,98
223,025	115,96
223,402	115,67
223,78	114,91
224,157	114,65
224,533	114,09
224,91	114,88
225,287	117,08
225,664	117,62
226,041	116,74
226,418	116,58
226,795	117,78
227,171	119,23
227,548	120,81
227,925	121,42
228,301	122,85
228,678	124,81
229,055	127,1
229,431	129,74
229,808	132,33
230,184	134,47
230,561	136,28
230,937	138,24
231,313	141,28
231,69	144,17
232,066	146,49
232,442	147,5
232,819	147,03
233,195	145,23
233,571	145,09
233,947	147,26
234,323	148,69
234,699	149,36
235,075	151,05
235,451	152,7
235,827	154,97
236,203	156,75
236,579	159,32
236,955	163,82
237,331	171,75
237,707	181,55
238,083	193,42
238,459	208,39
238,834	234,46
239,21	275,76
239,586	330,42
239,961	391,39
240,337	461,09
240,713	525,69
241,088	601,91
241,464	694,19
241,839	817,22
242,215	1086,7
242,59	2554,76
242,965	-1567,29
243,341	-445,88
243,716	-241,81
244,091	-172,37
244,467	-141,43
244,842	-123,84
245,217	-112,47
245,592	-107,09
245,967	-106,93
246,343	-104,38
246,718	-102,38
247,093	-103,52
247,468	-105,47
247,843	-104,85
248,218	-100,4
248,593	-93,03
248,967	-85,42
249,342	-81,93
249,717	-80,1
250,092	-79,25
250,467	-80,26
250,841	-85,46
251,216	-97,74
251,591	-118,39
251,965	-142,64
252,34	-161,42
252,714	-180,68
253,089	-193,35
253,463	-202,29
253,838	-199,64
254,212	-193,54
254,587	-183,28
254,961	-162,83
255,335	-138,83
255,71	-114,3
256,084	-88,3
256,458	-69,42
256,832	-58,03
257,206	-51,51
257,581	-48,26
257,955	-46,14
258,329	-43,94
258,703	-41,43
259,077	-39,4
259,451	-37,41
259,825	-36,4
260,199	-36,17
260,572	-35,53
260,946	-35,71
261,32	-35,52
261,694	-35,03
262,068	-34,81
262,441	-34,25
262,815	-33,99
263,189	-33,48
263,562	-33,68
263,936	-35,85
264,309	-39,66
264,683	-44,19
265,056	-46,49
265,43	-47,37
265,803	-47,6
266,176	-47,35
266,55	-47,45
266,923	-47,15
267,296	-46,21
267,67	-44,17
268,043	-42,24
268,416	-39,82
268,789	-37,07
269,162	-34,5
269,535	-32,28
269,908	-30,5
270,281	-29,74
270,654	-29,78
271,027	-30,3
271,4	-30,8
271,773	-30,88
272,146	-30,78
272,519	-30,7
272,891	-30,81
273,264	-30,73
273,637	-30,29
274,01	-29,85
274,382	-30,09
274,755	-30,25
275,127	-30,51
275,5	-30,8
275,872	-30,89
276,245	-31,23
276,617	-32,02
276,99	-32,74
277,362	-33,79
277,734	-34,74
278,107	-34,7
278,479	-34,41
278,851	-34,18
279,223	-33,84
279,596	-33,38
279,968	-33,23
280,34	-32,56
280,712	-31,7
281,084	-30,3
281,456	-28,81
281,828	-27,37
282,2	-25,22
282,572	-23,43
282,944	-22,13
283,315	-21,33
283,687	-20,64
284,059	-20,19
284,431	-19,83
284,802	-19,24
285,174	-18,56
285,546	-17,88
285,917	-17,2
286,289	-16,61
286,66	-16,16
287,032	-15,64
287,403	-15,23
287,775	-14,96
288,146	-14,92
288,518	-14,89
288,889	-14,85
289,26	-14,99
289,632	-15,44
290,003	-15,99
290,374	-16,14
290,745	-16,15
291,116	-16,18
291,487	-16,3
291,858	-16,22
292,229	-15,79
292,6	-15,19
292,971	-14,41
293,342	-13,78
293,713	-13,16
294,084	-12,47
294,455	-11,61
294,826	-11,04
295,196	-10,79
295,567	-10,78
295,938	-10,52
296,308	-10,29
296,679	-10,07
297,05	-9,8
297,42	-9,38
297,791	-9,06
298,161	-9,09
298,532	-8,95
298,902	-8,72
299,272	-8,54
299,643	-8,4
300,013	-8,26
300,383	-8,31
300,754	-8,53
301,124	-8,7
301,494	-8,89
301,864	-9
302,234	-9,24
302,604	-9,29
302,974	-9,14
303,344	-8,74
303,714	-8,4
304,084	-8,03
304,454	-7,8
304,824	-7,62
305,194	-7,54
305,563	-7,27
305,933	-6,84
306,303	-6,46
306,673	-5,93
307,042	-5,25
307,412	-4,61
307,781	-3,95
308,151	-3,46
308,521	-3,04
308,89	-2,64
309,259	-2,5
309,629	-2,42
309,998	-2,28
310,368	-2,22
310,737	-2,11
311,106	-2,02
311,475	-1,95
311,845	-1,9
312,214	-1,62
312,583	-1,34
312,952	-1,21
313,321	-1,16
313,69	-0,97
314,059	-0,77
314,428	-0,72
314,797	-0,73
315,166	-0,83
315,535	-1,16
315,904	-1,51
316,272	-1,72
316,641	-1,9
317,01	-1,8
317,379	-1,61
317,747	-1,32
318,116	-0,96
318,484	-0,6
318,853	-0,36
319,221	-0,11
319,59	0,05
319,958	0,19
320,327	0,33
320,695	0,56
321,063	0,92
321,432	1,29
321,8	1,58
322,168	1,77
322,536	1,87
322,905	2,31
323,273	2,85
323,641	3,44
324,009	3,9
324,377	4,15
324,745	4,46
325,113	4,75
325,481	5
325,849	5,15
326,216	5,31
326,584	5,58
326,952	5,8
327,32	6,13
327,687	6,36
328,055	6,62
328,423	6,82
328,79	6,83
329,158	6,81
329,525	6,87
329,893	7,08
330,26	7,33
330,628	7,5
330,995	7,68
331,362	7,78
331,73	7,94
332,097	8,23
332,464	8,44
332,831	8,6
333,199	8,71
333,566	8,89
333,933	9,09
334,3	9,3
334,667	9,49
335,034	9,61
335,401	9,67
335,768	9,73
336,135	9,92
336,502	10,22
336,868	10,49
337,235	10,76
337,602	10,9
337,969	11,05
338,335	11,17
338,702	11,39
339,069	11,52
339,435	11,6
339,802	11,71
340,168	11,86
340,535	11,96
340,901	12
341,267	12,02
341,634	12,1
342	12,25
342,366	12,42
342,733	12,5
343,099	12,69
343,465	12,78
343,831	12,83
344,197	12,94
344,563	12,99
344,929	12,96
345,295	13,08
345,661	13,18
346,027	13,26
346,393	13,24
346,759	13,33
347,125	13,46
347,491	13,59
347,856	13,71
348,222	13,79
348,588	14
348,953	14,23
349,319	14,26
349,684	14,3
350,05	14,36
350,415	14,5
350,781	14,57
351,146	14,73
351,512	14,9
351,877	14,93
352,242	15,03
352,608	15,19
352,973	15,39
353,338	15,58
353,703	15,75
354,068	15,81
354,433	15,89
354,798	15,98
355,164	16,12
355,528	16,17
355,893	16,26
356,258	16,33
356,623	16,47
356,988	16,66
357,353	16,82
357,718	16,96
358,082	17,02
358,447	17,13
358,812	17,28
359,176	17,4
359,541	17,52
359,905	17,59
360,27	17,64
360,634	17,59
360,999	17,65
361,363	17,73
361,728	17,85
362,092	17,95
362,456	18,04
362,821	18,07
363,185	18,16
363,549	18,28
363,913	18,39
364,277	18,4
364,641	18,42
365,005	18,52
365,369	18,57
365,733	18,69
366,097	18,76
366,461	18,75
366,825	18,81
367,189	18,9
367,553	19,05
367,916	19,22
368,28	19,39
368,644	19,52
369,007	19,57
369,371	19,72
369,734	19,92
370,098	20,05
370,461	20,16
370,825	20,21
371,188	20,28
371,552	20,37
371,915	20,48
372,278	20,59
372,642	20,67
373,005	20,77
373,368	20,9
373,731	21,06
374,094	21,2
374,457	21,27
374,82	21,44
375,183	21,55
375,546	21,65
375,909	21,73
376,272	21,83
376,635	21,97
376,998	22,04
377,361	22,06
377,723	22,12
378,086	22,22
378,449	22,3
378,811	22,41
379,174	22,52
379,537	22,62
379,899	22,71
380,262	22,75
380,624	22,83
380,987	22,91
381,349	22,96
381,711	23,04
382,074	23,14
382,436	23,19
382,798	23,33
383,16	23,37
383,522	23,45
383,884	23,46
384,247	23,52
384,609	23,6
384,971	23,62
385,333	23,67
385,695	23,67
386,056	23,7
386,418	23,68
386,78	23,75
387,142	23,74
387,504	23,76
387,865	23,78
388,227	23,85
388,589	23,9
388,95	23,93
389,312	23,96
389,673	24,02
390,035	24,05
390,396	24,02
390,758	24,05
391,119	24,04
391,48	24,09
391,842	24,09
392,203	24,11
392,564	24,12
392,925	24,18
393,286	24,26
393,648	24,32
394,009	24,4
394,37	24,4
394,731	24,49
395,092	24,55
395,452	24,62
395,813	24,68
396,174	24,68
396,535	24,69
396,896	24,71
397,257	24,73
397,617	24,78
397,978	24,78
398,338	24,83
398,699	24,89
399,06	25
399,42	25,08
399,781	25,11
400,141	25,23
400,501	25,23
400,862	25,22
401,222	25,26
401,582	25,31
401,943	25,34
402,303	25,35
402,663	25,42
403,023	25,44
403,383	25,43
403,743	25,45
404,103	25,51
404,463	25,61
404,823	25,67
405,183	25,68
405,543	25,73
405,903	25,76
406,262	25,79
406,622	25,74
406,982	25,73
407,342	25,76
407,701	25,75
408,061	25,8
408,42	25,84
408,78	25,87
409,139	25,86
409,499	25,85
409,858	25,89
410,217	25,94
410,577	25,93
410,936	25,99
411,295	26,03
411,655	26,02
412,014	26,01
412,373	26,01
412,732	26
413,091	25,97
413,45	25,99
413,809	26,01
414,168	26,05
414,527	26,1
414,886	26,12
415,245	26,13
415,603	26,13
415,962	26,1
416,321	26,08
416,679	26,1
417,038	26,1
417,397	26,05
417,755	26,01
418,114	26,02
418,472	26
418,831	26,01
419,189	26,02
419,547	26,01
419,906	26,01
420,264	26
420,622	26,02
420,981	26
421,339	25,99
421,697	25,99
422,055	26
422,413	25,99
422,771	26
423,129	26,02
423,487	26,06
423,845	26,08
424,203	26,08
424,56	26,11
424,918	26,16
425,276	26,21
425,634	26,23
425,991	26,27
426,349	26,28
426,707	26,34
427,064	26,36
427,422	26,38
427,779	26,45
428,137	26,46
428,494	26,54
428,851	26,58
429,209	26,64
429,566	26,65
429,923	26,67
430,28	26,68
430,637	26,7
430,995	26,73
431,352	26,75
431,709	26,78
432,066	26,83
432,423	26,87
432,78	26,87
433,137	26,88
433,493	26,88
433,85	26,94
434,207	26,92
434,564	26,91
434,92	26,96
435,277	26,96
435,634	27
435,99	27,01
436,347	27,02
436,703	27,04
437,06	27,04
437,416	27,07
437,773	27,1
438,129	27,09
438,485	27,1
438,841	27,09
439,198	27,08
439,554	27,07
439,91	27,06
440,266	27,1
440,622	27,13
440,978	27,14
441,334	27,11
441,69	27,13
442,046	27,14
442,402	27,13
442,758	27,15
443,113	27,16
443,469	27,18
443,825	27,19
444,181	27,18
444,536	27,22
444,892	27,22
445,247	27,26
445,603	27,28
445,958	27,29
446,314	27,33
446,669	27,36
447,025	27,37
447,38	27,37
447,735	27,37
448,09	27,36
448,446	27,4
448,801	27,43
449,156	27,44
449,511	27,49
449,866	27,53
450,221	27,56
450,576	27,6
450,931	27,66
451,286	27,73
451,641	27,77
451,995	27,81
452,35	27,87
452,705	27,87
453,06	27,88
453,414	27,9
453,769	27,89
454,123	27,92
454,478	27,93
454,832	27,99
455,187	27,97
455,541	27,99
455,896	27,97
456,25	28
456,604	28,01
456,958	27,98
457,313	27,96
457,667	27,95
458,021	27,95
458,375	27,94
458,729	27,95
459,083	27,96
459,437	27,94
459,791	27,94
460,145	27,97
460,499	28,01
460,852	28,01
461,206	28,02
461,56	28,03
461,914	28,06
462,267	28,05
462,621	28,1
462,974	28,12
463,328	28,13
463,681	28,15
464,035	28,18
464,388	28,22
464,742	28,26
465,095	28,29
465,448	28,33
465,801	28,33
466,155	28,33
466,508	28,36
466,861	28,39
467,214	28,4
467,567	28,39
467,92	28,38
468,273	28,4
468,626	28,41
468,979	28,41
469,332	28,42
469,684	28,4
470,037	28,4
470,39	28,4
470,743	28,45
471,095	28,45
471,448	28,46
471,8	28,47
472,153	28,52
472,505	28,55
472,858	28,54
473,21	28,56
473,562	28,57
473,915	28,58
474,267	28,59
474,619	28,6
474,971	28,6
475,324	28,62
475,676	28,63
476,028	28,65
476,38	28,64
476,732	28,66
477,084	28,7
477,436	28,69
477,787	28,69
478,139	28,68
478,491	28,7
478,843	28,7
479,195	28,72
479,546	28,68
479,898	28,71
480,249	28,8
480,601	28,89
480,952	28,91
481,304	28,93
481,655	28,93
482,007	28,91
482,358	28,91
482,709	28,91
483,061	28,92
483,412	28,92
483,763	28,92
484,114	28,92
484,465	28,92
484,816	28,93
485,167	28,93
485,518	28,91
485,869	28,91
486,22	28,92
486,571	28,92
486,922	28,94
487,272	28,94
487,623	28,9
487,974	28,86
488,324	28,85
488,675	28,83
489,025	28,84
489,376	28,84
489,726	28,84
490,077	28,84
490,427	28,85
490,778	28,86
491,128	28,88
491,478	28,88
491,828	28,9
492,179	28,91
492,529	28,94
492,879	29
493,229	29,04
493,579	29,05
493,929	29,07
494,279	29,09
494,629	29,11
494,979	29,15
495,328	29,16
495,678	29,17
496,028	29,22
496,378	29,26
496,727	29,29
497,077	29,35
497,426	29,41
497,776	29,42
498,125	29,41
498,475	29,44
498,824	29,45
499,174	29,47
499,523	29,48
499,872	29,49
500,221	29,5
500,571	29,51
500,92	29,52
501,269	29,55
501,618	29,57
501,967	29,6
502,316	29,6
502,665	29,63
503,014	29,64
503,363	29,65
503,711	29,63
504,06	29,67
504,409	29,67
504,758	29,66
505,106	29,69
505,455	29,71
505,803	29,73
506,152	29,72
506,5	29,72
506,849	29,73
507,197	29,72
507,546	29,74
507,894	29,75
508,242	29,76
508,59	29,74
508,939	29,72
509,287	29,74
509,635	29,74
509,983	29,73
510,331	29,76
510,679	29,78
511,027	29,8
511,375	29,8
511,723	29,79
512,07	29,8
512,418	29,81
512,766	29,81
513,114	29,81
513,461	29,85
513,809	29,87
514,156	29,89
514,504	29,93
514,851	29,92
515,199	29,94
515,546	29,95
515,893	29,97
516,241	29,99
516,588	29,98
516,935	30
517,282	30
517,63	30
517,977	30
518,324	30,02
518,671	30,05
519,018	30,08
519,365	30,08
519,711	30,08
520,058	30,09
520,405	30,09
520,752	30,1
521,099	30,09
521,445	30,07
521,792	30,07
522,138	30,06
522,485	30,05
522,832	30,06
523,178	30,05
523,524	30,05
523,871	30,07
524,217	30,06
524,563	30,09
524,91	30,11
525,256	30,15
525,602	30,19
525,948	30,2
526,294	30,19
526,64	30,2
526,986	30,19
527,332	30,19
527,678	30,2
528,024	30,2
528,37	30,23
528,716	30,24
529,061	30,26
529,407	30,27
529,753	30,27
530,098	30,27
530,444	30,29
530,789	30,31
531,135	30,31
531,48	30,31
531,826	30,3
532,171	30,3
532,516	30,29
532,862	30,29
533,207	30,3
533,552	30,31
533,897	30,3
534,242	30,31
534,587	30,31
534,932	30,33
535,277	30,34
535,622	30,34
535,967	30,33
536,312	30,33
536,657	30,35
537,001	30,37
537,346	30,39
537,691	30,44
538,035	30,45
538,38	30,48
538,724	30,51
539,069	30,54
539,413	30,55
539,758	30,56
540,102	30,54
540,446	30,54
540,791	30,53
541,135	30,55
541,479	30,55
541,823	30,57
542,167	30,58
542,512	30,56
542,856	30,55
543,2	30,58
543,543	30,59
543,887	30,59
544,231	30,62
544,575	30,62
544,919	30,6
545,262	30,6
545,606	30,59
545,95	30,6
546,293	30,61
546,637	30,61
546,98	30,61
547,324	30,63
547,667	30,66
548,011	30,69
548,354	30,73
548,697	30,77
549,04	30,77
549,384	30,79
549,727	30,81
550,07	30,83
550,413	30,81
550,756	30,83
551,099	30,86
551,442	30,84
551,785	30,86
552,128	30,88
552,47	30,88
552,813	30,87
553,156	30,89
553,499	30,88
553,841	30,93
554,184	30,9
554,526	30,88
554,869	30,86
555,211	30,87
555,554	30,84
555,896	30,81
556,238	30,8
556,581	30,78
556,923	30,79
557,265	30,79
557,607	30,82
557,949	30,8
558,291	30,76
558,633	30,74
558,975	30,73
559,317	30,69
559,659	30,68
560,001	30,69
560,343	30,66
560,685	30,67
561,026	30,65
561,368	30,67
561,71	30,62
562,051	30,63
562,393	30,65
562,734	30,65
563,076	30,67
563,417	30,7
563,759	30,67
564,1	30,66
564,441	30,66
564,782	30,62
565,124	30,58
565,465	30,59
565,806	30,6
566,147	30,59
566,488	30,59
566,829	30,62
567,17	30,65
567,511	30,65
567,851	30,63
568,192	30,62
568,533	30,63
568,874	30,66
569,214	30,67
569,555	30,61
569,895	30,61
570,236	30,59
570,576	30,53
570,917	30,56
571,257	30,54
571,598	30,53
571,938	30,53
572,278	30,56
572,618	30,57
572,959	30,58
573,299	30,58
573,639	30,56
573,979	30,55
574,319	30,51
574,659	30,47
574,999	30,47
575,339	30,44
575,678	30,42
576,018	30,4
576,358	30,38
576,698	30,42
577,037	30,41
577,377	30,4
577,716	30,35
578,056	30,31
578,395	30,33
578,735	30,33
579,074	30,28
579,413	30,27
579,753	30,24
580,092	30,18
580,431	30,14
580,77	30,16
581,109	30,18
581,448	30,16
581,787	30,18
582,126	30,18
582,465	30,17
582,804	30,14
583,143	30,18
583,482	30,15
583,82	30,12
584,159	30,11
584,498	30,09
584,836	30,17
585,175	30,19
585,514	30,18
585,852	30,2
586,19	30,23
586,529	30,21
586,867	30,22
587,205	30,29
587,544	30,33
587,882	30,32
588,22	30,31
588,558	30,32
588,896	30,32
589,234	30,31
589,572	30,31
589,91	30,3
590,248	30,23
590,586	30,23
590,924	30,26
591,262	30,26
591,599	30,32
591,937	30,29
592,275	30,29
592,612	30,3
592,95	30,29
593,287	30,33
593,625	30,39
593,962	30,38
594,299	30,38
594,637	30,4
594,974	30,46
595,311	30,44
595,648	30,44
595,985	30,48
596,322	30,49
596,659	30,51
596,996	30,55
597,333	30,58
597,67	30,58
598,007	30,58
598,344	30,56
598,681	30,58
599,017	30,58
599,354	30,59
599,691	30,64
600,027	30,64
600,364	30,66
600,7	30,67
601,037	30,73
601,373	30,74
601,71	30,73
602,046	30,72
602,382	30,74
602,718	30,78
603,054	30,75
603,391	30,72
603,727	30,68
604,063	30,72
604,399	30,73
604,735	30,75
605,071	30,76
605,406	30,79
605,742	30,78
606,078	30,83
606,414	30,84
606,749	30,84
607,085	30,84
607,421	30,81
607,756	30,79
608,092	30,7
608,427	30,7
608,762	30,69
609,098	30,68
609,433	30,66
609,768	30,61
610,104	30,6
610,439	30,63
610,774	30,64
611,109	30,58
611,444	30,58
611,779	30,56
612,114	30,51
612,449	30,53
612,784	30,47
613,118	30,4
613,453	30,38
613,788	30,32
614,123	30,3
614,457	30,28
614,792	30,26
615,126	30,32
615,461	30,27
615,795	30,25
616,13	30,19
616,464	30,18
616,798	30,16
617,132	30,18
617,467	30,18
617,801	30,2
618,135	30,23
618,469	30,22
618,803	30,24
619,137	30,3
619,471	30,27
619,805	30,23
620,139	30,28
620,472	30,29
620,806	30,27
621,14	30,28
621,473	30,29
621,807	30,34
622,141	30,33
622,474	30,34
622,808	30,4
623,141	30,47
623,474	30,51
623,808	30,6
624,141	30,63
624,474	30,65
624,807	30,69
625,141	30,7
625,474	30,77
625,807	30,77
626,14	30,74
626,473	30,78
626,806	30,83
627,138	30,82
627,471	30,78
627,804	30,78
628,137	30,84
628,469	30,85
628,802	30,82
629,135	30,85
629,467	30,83
629,8	30,79
630,132	30,79
630,465	30,8
630,797	30,77
631,129	30,78
631,461	30,8
631,794	30,8
632,126	30,78
632,458	30,76
632,79	30,76
633,122	30,79
633,454	30,81
633,786	30,79
634,118	30,76
634,45	30,82
634,781	30,8
635,113	30,74
635,445	30,71
635,777	30,75
636,108	30,76
636,44	30,79
636,771	30,78
637,103	30,8
637,434	30,78
637,765	30,77
638,097	30,76
638,428	30,69
638,759	30,64
639,09	30,65
639,422	30,65
639,753	30,66
640,084	30,66
640,415	30,64
640,746	30,66
641,077	30,72
641,407	30,7
641,738	30,73
642,069	30,73
642,4	30,79
642,73	30,73
643,061	30,66
643,392	30,66
643,722	30,69
644,053	30,62
644,383	30,6
644,713	30,6
645,044	30,59
645,374	30,7
645,704	30,68
646,034	30,73
646,365	30,71
