Data from zc74042_5_Reflection_00002.txt Node
Date: Thu Mar 12 14:53:28 ART 2020
User: Ana
Spectrometer: USB2E3644
Trigger mode: 4
Integration Time (sec): 5,000000E-2
Scans to average: 10
Electric dark correction enabled: true
Nonlinearity correction enabled: false
Boxcar width: 10
XAxis mode: Wavelengths
Number of Pixels in Spectrum: 2048
>>>>>Begin Spectral Data<<<<<
178,315	80,04
178,696	69,86
179,076	58,09
179,457	63,78
179,838	56,06
180,218	41,54
180,599	34,62
180,979	128,57
181,36	94,19
181,74	133,73
182,121	140,63
182,501	136,4
182,881	123,05
183,262	116,76
183,642	115,12
184,022	118,2
184,402	121,57
184,783	124,43
185,163	127,72
185,543	126,72
185,923	125,44
186,303	125,35
186,683	123,55
187,063	121,76
187,443	121,94
187,823	120,12
188,203	121,2
188,583	124,78
188,963	129,67
189,343	132,23
189,723	132,08
190,102	132,83
190,482	137,93
190,862	140,74
191,242	142,5
191,621	142,01
192,001	139,32
192,38	134,87
192,76	133,19
193,14	133,64
193,519	134,07
193,898	133,89
194,278	133,99
194,657	133,31
195,037	133,8
195,416	135,43
195,795	135,74
196,175	134,86
196,554	133,04
196,933	129,29
197,312	127,27
197,692	124,42
198,071	121,82
198,45	118,42
198,829	117,66
199,208	116,99
199,587	116,46
199,966	116,01
200,345	115,1
200,724	113,39
201,103	111,61
201,482	110,39
201,86	111,36
202,239	112,94
202,618	114,52
202,997	115,84
203,375	116,05
203,754	117,02
204,133	117,23
204,511	117,07
204,89	116,48
205,269	116,05
205,647	117,51
206,026	118,21
206,404	119,25
206,782	119,51
207,161	120,49
207,539	122,43
207,918	125,69
208,296	128,4
208,674	130,77
209,052	131,59
209,431	132,07
209,809	130,9
210,187	129,03
210,565	127,35
210,943	127,44
211,321	128,58
211,699	128,43
212,077	128,72
212,455	130,49
212,833	132,64
213,211	133,62
213,589	134,91
213,967	137,13
214,345	138,11
214,722	138,26
215,1	138,36
215,478	136,71
215,855	133,87
216,233	133,44
216,611	134,03
216,988	135,69
217,366	136,57
217,743	137,81
218,121	139,42
218,498	140,92
218,876	140,84
219,253	140,48
219,631	142,61
220,008	144,78
220,385	145,15
220,762	145,25
221,14	149,05
221,517	149,19
221,894	147,66
222,271	149,78
222,648	152,2
223,025	153,62
223,402	155,89
223,78	159,27
224,157	160,36
224,533	158,22
224,91	156,53
225,287	156,84
225,664	158,89
226,041	162,5
226,418	166,47
226,795	167,83
227,171	169,93
227,548	172
227,925	174,28
228,301	178,68
228,678	182,82
229,055	182,18
229,431	185,22
229,808	191,77
230,184	194,78
230,561	197,86
230,937	200,47
231,313	202,94
231,69	205,2
232,066	204,7
232,442	207,74
232,819	213,69
233,195	214,22
233,571	216,58
233,947	219,95
234,323	222,35
234,699	228,99
235,075	232,03
235,451	233,75
235,827	236,14
236,203	237,48
236,579	241,95
236,955	253,51
237,331	265,96
237,707	281,44
238,083	313,03
238,459	370,12
238,834	472,35
239,21	672,35
239,586	1069,2
239,961	2180,91
240,337	6697,22
240,713	-13394,44
241,088	-3785,94
241,464	-2773,86
241,839	-2078,81
242,215	-1241,92
242,59	-718,42
242,965	-396,94
243,341	-236,81
243,716	-160,07
244,091	-126,66
244,467	-109,75
244,842	-98,98
245,217	-90,3
245,592	-85,23
245,967	-85,07
246,343	-85,17
246,718	-85,7
247,093	-89,23
247,468	-90,48
247,843	-88,86
248,218	-84,7
248,593	-79
248,967	-72,98
249,342	-69,5
249,717	-67,17
250,092	-66,26
250,467	-67,64
250,841	-72,36
251,216	-81,92
251,591	-97,82
251,965	-112,44
252,34	-122,82
252,714	-135,02
253,089	-145,08
253,463	-153,77
253,838	-151,95
254,212	-145,05
254,587	-134,79
254,961	-116,95
255,335	-101,18
255,71	-85,55
256,084	-68,78
256,458	-56,62
256,832	-48,65
257,206	-43,99
257,581	-41,69
257,955	-39,9
258,329	-38,17
258,703	-36,29
259,077	-35,1
259,451	-33,93
259,825	-33,71
260,199	-34,22
260,572	-33,94
260,946	-33,95
261,32	-33,34
261,694	-32,67
262,068	-32,5
262,441	-32,31
262,815	-32,27
263,189	-31,97
263,562	-32,66
263,936	-35,09
264,309	-38,62
264,683	-42,37
265,056	-44,41
265,43	-45,25
265,803	-45,27
266,176	-44,95
266,55	-45,12
266,923	-44,7
267,296	-43,76
267,67	-41,8
268,043	-39,91
268,416	-37,58
268,789	-35,34
269,162	-33,44
269,535	-31,76
269,908	-30,44
270,281	-29,59
270,654	-29,55
271,027	-30,1
271,4	-30,11
271,773	-29,82
272,146	-29,58
272,519	-29,67
272,891	-29,82
273,264	-29,84
273,637	-29,92
274,01	-29,73
274,382	-29,99
274,755	-30,18
275,127	-30,24
275,5	-30,5
275,872	-30,46
276,245	-30,72
276,617	-31,33
276,99	-31,77
277,362	-32,41
277,734	-32,53
278,107	-32,35
278,479	-31,84
278,851	-31,04
279,223	-30,37
279,596	-30,04
279,968	-30,18
280,34	-29,77
280,712	-29,16
281,084	-28,1
281,456	-26,91
281,828	-25,76
282,2	-24,13
282,572	-22,78
282,944	-21,77
283,315	-21,14
283,687	-20,47
284,059	-20,15
284,431	-19,77
284,802	-19,36
285,174	-18,97
285,546	-18,55
285,917	-17,91
286,289	-17,37
286,66	-17,18
287,032	-16,91
287,403	-16,64
287,775	-16,32
288,146	-16,35
288,518	-16,45
288,889	-16,3
289,26	-16,36
289,632	-16,81
290,003	-17,36
290,374	-17,68
290,745	-17,9
291,116	-18,06
291,487	-18,38
291,858	-18,46
292,229	-18,43
292,6	-18,35
292,971	-17,89
293,342	-17,46
293,713	-17,08
294,084	-16,75
294,455	-16,3
294,826	-16,31
295,196	-16,44
295,567	-16,67
295,938	-16,47
296,308	-16,29
296,679	-16,3
297,05	-16,03
297,42	-15,47
297,791	-14,89
298,161	-14,66
298,532	-14,36
298,902	-14,11
299,272	-13,84
299,643	-13,58
300,013	-13,18
300,383	-12,88
300,754	-12,91
301,124	-13,25
301,494	-13,67
301,864	-13,98
302,234	-14,23
302,604	-14,16
302,974	-13,9
303,344	-13,63
303,714	-13,3
304,084	-12,81
304,454	-12,63
304,824	-12,72
305,194	-12,91
305,563	-13,05
305,933	-12,95
306,303	-12,88
306,673	-12,51
307,042	-12,13
307,412	-11,7
307,781	-11,3
308,151	-11,11
308,521	-10,83
308,89	-10,33
309,259	-10,09
309,629	-9,86
309,998	-9,65
310,368	-9,56
310,737	-9,53
311,106	-9,44
311,475	-9,48
311,845	-9,72
312,214	-9,73
312,583	-9,72
312,952	-9,77
313,321	-9,78
313,69	-9,62
314,059	-9,49
314,428	-9,6
314,797	-9,79
315,166	-10,15
315,535	-10,59
315,904	-10,83
316,272	-11,12
316,641	-11,37
317,01	-11,29
317,379	-11,33
317,747	-11,29
318,116	-11,06
318,484	-10,79
318,853	-10,63
319,221	-10,54
319,59	-10,51
319,958	-10,39
320,327	-10,22
320,695	-10
321,063	-9,83
321,432	-9,71
321,8	-9,54
322,168	-9,37
322,536	-9,3
322,905	-8,9
323,273	-8,62
323,641	-8,47
324,009	-8,27
324,377	-8,18
324,745	-8,15
325,113	-7,98
325,481	-7,82
325,849	-7,77
326,216	-7,73
326,584	-7,6
326,952	-7,4
327,32	-7,05
327,687	-6,82
328,055	-6,58
328,423	-6,39
328,79	-6,33
329,158	-6,38
329,525	-6,49
329,893	-6,48
330,26	-6,34
330,628	-6,31
330,995	-6,17
331,362	-5,99
331,73	-5,83
332,097	-5,62
332,464	-5,37
332,831	-5,19
333,199	-5,07
333,566	-4,92
333,933	-4,7
334,3	-4,46
334,667	-4,35
335,034	-4,32
335,401	-4,33
335,768	-4,32
336,135	-4,28
336,502	-4,17
336,868	-4,06
337,235	-3,94
337,602	-3,8
337,969	-3,55
338,335	-3,38
338,702	-3,17
339,069	-3,07
339,435	-3,09
339,802	-3,05
340,168	-3,08
340,535	-3,05
340,901	-3,06
341,267	-3,03
341,634	-2,97
342	-2,99
342,366	-2,96
342,733	-2,98
343,099	-2,88
343,465	-2,84
343,831	-2,81
344,197	-2,74
344,563	-2,67
344,929	-2,6
345,295	-2,49
345,661	-2,45
346,027	-2,46
346,393	-2,58
346,759	-2,58
347,125	-2,49
347,491	-2,48
347,856	-2,43
348,222	-2,43
348,588	-2,29
348,953	-2,18
349,319	-2,2
349,684	-2,15
350,05	-2,1
350,415	-1,97
350,781	-1,87
351,146	-1,76
351,512	-1,65
351,877	-1,55
352,242	-1,49
352,608	-1,41
352,973	-1,36
353,338	-1,3
353,703	-1,17
354,068	-1,06
354,433	-1
354,798	-0,98
355,164	-0,93
355,528	-0,91
355,893	-0,9
356,258	-0,96
356,623	-0,93
356,988	-0,82
357,353	-0,76
357,718	-0,71
358,082	-0,73
358,447	-0,74
358,812	-0,66
359,176	-0,62
359,541	-0,61
359,905	-0,55
360,27	-0,53
360,634	-0,54
360,999	-0,52
361,363	-0,54
361,728	-0,56
362,092	-0,54
362,456	-0,49
362,821	-0,43
363,185	-0,32
363,549	-0,2
363,913	-0,13
364,277	-0,1
364,641	-0,11
365,005	-0,06
365,369	0,02
365,733	0,15
366,097	0,24
366,461	0,25
366,825	0,33
367,189	0,42
367,553	0,51
367,916	0,67
368,28	0,8
368,644	0,87
369,007	0,97
369,371	1,09
369,734	1,2
370,098	1,27
370,461	1,35
370,825	1,36
371,188	1,38
371,552	1,45
371,915	1,51
372,278	1,62
372,642	1,68
373,005	1,77
373,368	1,88
373,731	1,97
374,094	2,08
374,457	2,16
374,82	2,25
375,183	2,33
375,546	2,39
375,909	2,45
376,272	2,55
376,635	2,65
376,998	2,72
377,361	2,81
377,723	2,89
378,086	2,98
378,449	3,08
378,811	3,16
379,174	3,24
379,537	3,3
379,899	3,36
380,262	3,41
380,624	3,45
380,987	3,5
381,349	3,55
381,711	3,59
382,074	3,65
382,436	3,71
382,798	3,78
383,16	3,79
383,522	3,85
383,884	3,88
384,247	3,91
384,609	3,95
384,971	3,98
385,333	4,01
385,695	4,03
386,056	4,06
386,418	4,08
386,78	4,06
387,142	4,05
387,504	4,04
387,865	4,08
388,227	4,12
388,589	4,15
388,95	4,17
389,312	4,19
389,673	4,2
390,035	4,19
390,396	4,21
390,758	4,25
391,119	4,24
391,48	4,24
391,842	4,22
392,203	4,22
392,564	4,24
392,925	4,29
393,286	4,3
393,648	4,3
394,009	4,34
394,37	4,37
394,731	4,42
395,092	4,45
395,452	4,46
395,813	4,47
396,174	4,47
396,535	4,46
396,896	4,47
397,257	4,51
397,617	4,56
397,978	4,58
398,338	4,58
398,699	4,63
399,06	4,69
399,42	4,72
399,781	4,74
400,141	4,73
400,501	4,72
400,862	4,73
401,222	4,75
401,582	4,75
401,943	4,75
402,303	4,74
402,663	4,74
403,023	4,74
403,383	4,75
403,743	4,77
404,103	4,78
404,463	4,8
404,823	4,83
405,183	4,83
405,543	4,85
405,903	4,85
406,262	4,82
406,622	4,78
406,982	4,79
407,342	4,81
407,701	4,84
408,061	4,85
408,42	4,88
408,78	4,91
409,139	4,92
409,499	4,94
409,858	4,96
410,217	5,01
410,577	5,02
410,936	5,01
411,295	5
411,655	4,99
412,014	4,97
412,373	4,92
412,732	4,87
413,091	4,82
413,45	4,78
413,809	4,75
414,168	4,71
414,527	4,65
414,886	4,6
415,245	4,55
415,603	4,5
415,962	4,45
416,321	4,4
416,679	4,36
417,038	4,31
417,397	4,27
417,755	4,22
418,114	4,19
418,472	4,17
418,831	4,16
419,189	4,15
419,547	4,15
419,906	4,13
420,264	4,11
420,622	4,09
420,981	4,08
421,339	4,09
421,697	4,1
422,055	4,12
422,413	4,14
422,771	4,17
423,129	4,2
423,487	4,23
423,845	4,25
424,203	4,28
424,56	4,32
424,918	4,35
425,276	4,39
425,634	4,42
425,991	4,46
426,349	4,49
426,707	4,51
427,064	4,55
427,422	4,58
427,779	4,63
428,137	4,69
428,494	4,75
428,851	4,77
429,209	4,8
429,566	4,8
429,923	4,79
430,28	4,76
430,637	4,75
430,995	4,74
431,352	4,72
431,709	4,72
432,066	4,72
432,423	4,74
432,78	4,74
433,137	4,73
433,493	4,72
433,85	4,73
434,207	4,7
434,564	4,69
434,92	4,7
435,277	4,7
435,634	4,69
435,99	4,68
436,347	4,66
436,703	4,65
437,06	4,65
437,416	4,65
437,773	4,65
438,129	4,63
438,485	4,64
438,841	4,64
439,198	4,64
439,554	4,63
439,91	4,64
440,266	4,65
440,622	4,65
440,978	4,65
441,334	4,62
441,69	4,62
442,046	4,6
442,402	4,58
442,758	4,56
443,113	4,56
443,469	4,55
443,825	4,56
444,181	4,57
444,536	4,58
444,892	4,58
445,247	4,6
445,603	4,63
445,958	4,63
446,314	4,63
446,669	4,65
447,025	4,65
447,38	4,64
447,735	4,65
448,09	4,66
448,446	4,68
448,801	4,69
449,156	4,71
449,511	4,75
449,866	4,8
450,221	4,84
450,576	4,87
450,931	4,92
451,286	4,95
451,641	4,98
451,995	5,01
452,35	5,06
452,705	5,08
453,06	5,08
453,414	5,1
453,769	5,11
454,123	5,12
454,478	5,13
454,832	5,15
455,187	5,14
455,541	5,13
455,896	5,11
456,25	5,09
456,604	5,07
456,958	5,06
457,313	5,03
457,667	5,02
458,021	5,02
458,375	5,01
458,729	5,03
459,083	5,05
459,437	5,06
459,791	5,05
460,145	5,06
460,499	5,06
460,852	5,05
461,206	5,06
461,56	5,06
461,914	5,07
462,267	5,06
462,621	5,07
462,974	5,07
463,328	5,1
463,681	5,12
464,035	5,17
464,388	5,2
464,742	5,23
465,095	5,26
465,448	5,27
465,801	5,28
466,155	5,28
466,508	5,27
466,861	5,26
467,214	5,25
467,567	5,24
467,92	5,26
468,273	5,27
468,626	5,28
468,979	5,28
469,332	5,28
469,684	5,28
470,037	5,3
470,39	5,32
470,743	5,33
471,095	5,34
471,448	5,34
471,8	5,35
472,153	5,37
472,505	5,37
472,858	5,37
473,21	5,39
473,562	5,4
473,915	5,41
474,267	5,42
474,619	5,42
474,971	5,44
475,324	5,43
475,676	5,42
476,028	5,42
476,38	5,43
476,732	5,44
477,084	5,45
477,436	5,45
477,787	5,44
478,139	5,43
478,491	5,43
478,843	5,42
479,195	5,4
479,546	5,37
479,898	5,36
480,249	5,32
480,601	5,28
480,952	5,26
481,304	5,23
481,655	5,22
482,007	5,22
482,358	5,21
482,709	5,21
483,061	5,2
483,412	5,2
483,763	5,2
484,114	5,19
484,465	5,19
484,816	5,19
485,167	5,19
485,518	5,2
485,869	5,2
486,22	5,21
486,571	5,21
486,922	5,23
487,272	5,24
487,623	5,26
487,974	5,28
488,324	5,3
488,675	5,32
489,025	5,34
489,376	5,35
489,726	5,36
490,077	5,38
490,427	5,4
490,778	5,42
491,128	5,44
491,478	5,47
491,828	5,5
492,179	5,53
492,529	5,56
492,879	5,57
493,229	5,58
493,579	5,61
493,929	5,63
494,279	5,65
494,629	5,65
494,979	5,67
495,328	5,71
495,678	5,75
496,028	5,79
496,378	5,83
496,727	5,85
497,077	5,88
497,426	5,9
497,776	5,9
498,125	5,93
498,475	5,94
498,824	5,95
499,174	5,96
499,523	5,97
499,872	5,99
500,221	6,02
500,571	6,04
500,92	6,07
501,269	6,08
501,618	6,1
501,967	6,12
502,316	6,15
502,665	6,15
503,014	6,16
503,363	6,17
503,711	6,18
504,06	6,2
504,409	6,22
504,758	6,21
505,106	6,24
505,455	6,24
505,803	6,25
506,152	6,25
506,5	6,26
506,849	6,27
507,197	6,28
507,546	6,28
507,894	6,3
508,242	6,31
508,59	6,3
508,939	6,29
509,287	6,31
509,635	6,32
509,983	6,35
510,331	6,37
510,679	6,38
511,027	6,4
511,375	6,41
511,723	6,43
512,07	6,46
512,418	6,49
512,766	6,52
513,114	6,54
513,461	6,58
513,809	6,59
514,156	6,6
514,504	6,61
514,851	6,63
515,199	6,62
515,546	6,64
515,893	6,66
516,241	6,71
516,588	6,72
516,935	6,74
517,282	6,75
517,63	6,77
517,977	6,79
518,324	6,82
518,671	6,84
519,018	6,86
519,365	6,88
519,711	6,88
520,058	6,9
520,405	6,91
520,752	6,92
521,099	6,94
521,445	6,96
521,792	6,98
522,138	6,99
522,485	7
522,832	7,02
523,178	7,04
523,524	7,04
523,871	7,06
524,217	7,07
524,563	7,08
524,91	7,09
525,256	7,07
525,602	7,07
525,948	7,07
526,294	7,07
526,64	7,06
526,986	7,05
527,332	7,05
527,678	7,04
528,024	7,06
528,37	7,08
528,716	7,1
529,061	7,11
529,407	7,12
529,753	7,16
530,098	7,17
530,444	7,19
530,789	7,19
531,135	7,2
531,48	7,21
531,826	7,22
532,171	7,24
532,516	7,28
532,862	7,31
533,207	7,34
533,552	7,37
533,897	7,41
534,242	7,43
534,587	7,46
534,932	7,51
535,277	7,52
535,622	7,54
535,967	7,56
536,312	7,58
536,657	7,61
537,001	7,63
537,346	7,67
537,691	7,71
538,035	7,74
538,38	7,78
538,724	7,8
539,069	7,82
539,413	7,83
539,758	7,84
540,102	7,87
540,446	7,87
540,791	7,89
541,135	7,91
541,479	7,94
541,823	7,96
542,167	7,96
542,512	7,97
542,856	7,97
543,2	7,98
543,543	7,99
543,887	8
544,231	8,02
544,575	8,04
544,919	8,06
545,262	8,1
545,606	8,12
545,95	8,16
546,293	8,19
546,637	8,22
546,98	8,27
547,324	8,29
547,667	8,37
548,011	8,4
548,354	8,43
548,697	8,45
549,04	8,48
549,384	8,52
549,727	8,53
550,07	8,57
550,413	8,59
550,756	8,62
551,099	8,65
551,442	8,67
551,785	8,71
552,128	8,72
552,47	8,73
552,813	8,75
553,156	8,77
553,499	8,79
553,841	8,83
554,184	8,82
554,526	8,82
554,869	8,79
555,211	8,78
555,554	8,79
555,896	8,79
556,238	8,77
556,581	8,74
556,923	8,74
557,265	8,75
557,607	8,76
557,949	8,78
558,291	8,78
558,633	8,79
558,975	8,78
559,317	8,78
559,659	8,79
560,001	8,78
560,343	8,78
560,685	8,77
561,026	8,76
561,368	8,77
561,71	8,78
562,051	8,8
562,393	8,85
562,734	8,84
563,076	8,88
563,417	8,89
563,759	8,93
564,1	8,97
564,441	8,99
564,782	9
565,124	9
565,465	9,03
565,806	9,01
566,147	9,03
566,488	9,05
566,829	9,07
567,17	9,1
567,511	9,13
567,851	9,16
568,192	9,16
568,533	9,18
568,874	9,19
569,214	9,21
569,555	9,2
569,895	9,23
570,236	9,23
570,576	9,23
570,917	9,23
571,257	9,22
571,598	9,22
571,938	9,26
572,278	9,28
572,618	9,28
572,959	9,33
573,299	9,33
573,639	9,33
573,979	9,35
574,319	9,36
574,659	9,35
574,999	9,33
575,339	9,34
575,678	9,37
576,018	9,37
576,358	9,38
576,698	9,4
577,037	9,39
577,377	9,4
577,716	9,41
578,056	9,44
578,395	9,48
578,735	9,5
579,074	9,49
579,413	9,51
579,753	9,51
580,092	9,47
580,431	9,48
580,77	9,51
581,109	9,51
581,448	9,51
581,787	9,53
582,126	9,55
582,465	9,57
582,804	9,57
583,143	9,6
583,482	9,6
583,82	9,61
584,159	9,65
584,498	9,68
584,836	9,72
585,175	9,75
585,514	9,77
585,852	9,81
586,19	9,85
586,529	9,86
586,867	9,92
587,205	10,02
587,544	10,05
587,882	10,08
588,22	10,09
588,558	10,12
588,896	10,16
589,234	10,21
589,572	10,22
589,91	10,25
590,248	10,25
590,586	10,28
590,924	10,32
591,262	10,36
591,599	10,4
591,937	10,43
592,275	10,46
592,612	10,5
592,95	10,54
593,287	10,59
593,625	10,65
593,962	10,67
594,299	10,68
594,637	10,73
594,974	10,77
595,311	10,82
595,648	10,85
595,985	10,88
596,322	10,89
596,659	10,94
596,996	10,99
597,333	11
597,67	11,02
598,007	11,04
598,344	11,08
598,681	11,09
599,017	11,12
599,354	11,14
599,691	11,17
600,027	11,21
600,364	11,27
600,7	11,33
601,037	11,39
601,373	11,48
601,71	11,55
602,046	11,62
602,382	11,65
602,718	11,69
603,054	11,73
603,391	11,8
603,727	11,82
604,063	11,83
604,399	11,91
604,735	11,96
605,071	11,99
605,406	12,03
605,742	12,09
606,078	12,14
606,414	12,17
606,749	12,25
607,085	12,28
607,421	12,3
607,756	12,31
608,092	12,34
608,427	12,33
608,762	12,33
609,098	12,33
609,433	12,35
609,768	12,38
610,104	12,37
610,439	12,35
610,774	12,37
611,109	12,43
611,444	12,45
611,779	12,44
612,114	12,46
612,449	12,48
612,784	12,46
613,118	12,46
613,453	12,49
613,788	12,46
614,123	12,45
614,457	12,43
614,792	12,46
615,126	12,45
615,461	12,43
615,795	12,47
616,13	12,47
616,464	12,49
616,798	12,51
617,132	12,56
617,467	12,62
617,801	12,64
618,135	12,66
618,469	12,66
618,803	12,71
619,137	12,77
619,471	12,8
619,805	12,81
620,139	12,86
620,472	12,91
620,806	12,95
621,14	13,02
621,473	13,07
621,807	13,05
622,141	13,12
622,474	13,21
622,808	13,25
623,141	13,34
623,474	13,42
623,808	13,5
624,141	13,57
624,474	13,61
624,807	13,67
625,141	13,73
625,474	13,81
625,807	13,87
626,14	13,89
626,473	13,94
626,806	14
627,138	14,05
627,471	14,04
627,804	14,09
628,137	14,12
628,469	14,14
628,802	14,19
629,135	14,24
629,467	14,27
629,8	14,31
630,132	14,31
630,465	14,33
630,797	14,33
631,129	14,36
631,461	14,42
631,794	14,45
632,126	14,48
632,458	14,49
632,79	14,53
633,122	14,58
633,454	14,58
633,786	14,63
634,118	14,67
634,45	14,74
634,781	14,79
635,113	14,81
635,445	14,84
635,777	14,91
636,108	14,91
636,44	14,91
636,771	14,95
637,103	14,99
637,434	15,02
637,765	15,06
638,097	15,08
638,428	15,11
638,759	15,14
639,09	15,14
639,422	15,18
639,753	15,2
640,084	15,21
640,415	15,25
640,746	15,26
641,077	15,26
641,407	15,3
641,738	15,33
642,069	15,35
642,4	15,41
642,73	15,43
643,061	15,5
643,392	15,56
643,722	15,59
644,053	15,67
644,383	15,71
644,713	15,78
645,044	15,82
645,374	15,84
645,704	15,88
646,034	15,93
646,365	15,94
646,695	16,01
647,025	16,1
647,355	16,15
647,685	16,22
648,015	16,27
648,344	16,28
648,674	16,31
649,004	16,37
649,334	16,41
649,663	16,45
649,993	16,46
650,323	16,55
650,652	16,57
650,982	16,58
651,311	16,58
651,64	16,61
651,97	16,68
652,299	16,72
652,628	16,76
652,958	16,8
653,287	16,88
653,616	16,9
653,945	16,92
654,274	16,92
654,603	16,91
654,932	16,99
655,261	17,06
655,589	17,1
655,918	17,2
656,247	17,29
656,576	17,33
656,904	17,43
