Data from zc74010_4_Reflection_00003.txt Node
Date: Thu Mar 12 15:01:22 ART 2020
User: Ana
Spectrometer: USB2E3644
Trigger mode: 4
Integration Time (sec): 5,000000E-2
Scans to average: 10
Electric dark correction enabled: true
Nonlinearity correction enabled: false
Boxcar width: 10
XAxis mode: Wavelengths
Number of Pixels in Spectrum: 2048
>>>>>Begin Spectral Data<<<<<
178,315	94,12
178,696	101,94
179,076	119,06
179,457	120,58
179,838	150,95
180,218	250,37
180,599	1427,78
180,979	132,26
181,36	431,94
181,74	219,75
182,121	162,08
182,501	123,57
182,881	120,23
183,262	112,32
183,642	106,07
184,022	101,97
184,402	99,95
184,783	99,05
185,163	98,33
185,543	98,93
185,923	102,39
186,303	104,87
186,683	106,75
187,063	111,73
187,443	115,8
187,823	119,14
188,203	120,37
188,583	119,22
188,963	115,46
189,343	112,86
189,723	113,39
190,102	117,27
190,482	122
190,862	124,87
191,242	126,7
191,621	127,85
192,001	127,84
192,38	127,9
192,76	127,43
193,14	128,15
193,519	127,52
193,898	127,22
194,278	127,22
194,657	127,52
195,037	126,19
195,416	122,77
195,795	121,27
196,175	120,82
196,554	119,56
196,933	119,28
197,312	118,77
197,692	117,5
198,071	116,01
198,45	115,17
198,829	114,52
199,208	114,93
199,587	115,13
199,966	114,95
200,345	113,98
200,724	113,22
201,103	113,18
201,482	113,76
201,86	113,9
202,239	112,28
202,618	111,11
202,997	110,82
203,375	111,08
203,754	111,13
204,133	111,97
204,511	113,53
204,89	114,34
205,269	115,38
205,647	116,02
206,026	116,11
206,404	116,3
206,782	116,26
207,161	115,78
207,539	115,76
207,918	116,88
208,296	119,09
208,674	121,51
209,052	123
209,431	124,63
209,809	126,31
210,187	128,04
210,565	128,76
210,943	129,7
211,321	130,56
211,699	131,89
212,077	132,34
212,455	131,63
212,833	132,21
213,211	132,24
213,589	132,73
213,967	132,91
214,345	132,4
214,722	133,17
215,1	133,61
215,478	133,35
215,855	133,35
216,233	132,97
216,611	132,81
216,988	132,34
217,366	130,71
217,743	130,08
218,121	130,36
218,498	131,17
218,876	130,04
219,253	127,93
219,631	126,18
220,008	125,15
220,385	125,4
220,762	124,59
221,14	123,24
221,517	121,62
221,894	120,62
222,271	118,75
222,648	116,52
223,025	114,69
223,402	113,56
223,78	112,09
224,157	110,91
224,533	109,01
224,91	108,17
225,287	109,06
225,664	110,48
226,041	112,31
226,418	113,97
226,795	115,05
227,171	116,13
227,548	117,66
227,925	118,57
228,301	118,83
228,678	119,84
229,055	121,42
229,431	123,43
229,808	125,25
230,184	127,55
230,561	130,55
230,937	134,39
231,313	137,9
231,69	141,05
232,066	144,12
232,442	146,75
232,819	148,63
233,195	148,84
233,571	148,43
233,947	148,59
234,323	149,06
234,699	150,6
235,075	152,43
235,451	154,22
235,827	156,12
236,203	157,91
236,579	159,98
236,955	164,22
237,331	171,89
237,707	181,85
238,083	194,22
238,459	209,08
238,834	234,07
239,21	275,08
239,586	329,59
239,961	390,73
240,337	458,78
240,713	519,58
241,088	589,47
241,464	677,05
241,839	795,89
242,215	1051,61
242,59	2446,6
242,965	-1498,54
243,341	-427,86
243,716	-232,98
244,091	-167,83
244,467	-139,62
244,842	-122,94
245,217	-111,56
245,592	-106,05
245,967	-105,24
246,343	-102,56
246,718	-100,73
247,093	-102,85
247,468	-105,81
247,843	-105,88
248,218	-101,8
248,593	-94,26
248,967	-86,35
249,342	-82,48
249,717	-80,76
250,092	-80,17
250,467	-81,52
250,841	-86,73
251,216	-98,54
251,591	-118,01
251,965	-140,23
252,34	-157,63
252,714	-176,29
253,089	-189,09
253,463	-197
253,838	-193,53
254,212	-187,92
254,587	-177,97
254,961	-156,71
255,335	-132,84
255,71	-108,75
256,084	-83,64
256,458	-66,17
256,832	-55,72
257,206	-49,52
257,581	-46,28
257,955	-44,49
258,329	-42,64
258,703	-40,39
259,077	-38,35
259,451	-36,44
259,825	-35,67
260,199	-35,7
260,572	-35,25
260,946	-35,53
261,32	-35,59
261,694	-35,51
262,068	-35,43
262,441	-35,24
262,815	-35,54
263,189	-35,53
263,562	-36,38
263,936	-39,22
264,309	-43,38
264,683	-48,09
265,056	-50,61
265,43	-51,63
265,803	-51,82
266,176	-51,7
266,55	-51,6
266,923	-50,85
267,296	-49,92
267,67	-47,91
268,043	-45,7
268,416	-43,04
268,789	-39,93
269,162	-37,09
269,535	-34,67
269,908	-32,96
270,281	-31,76
270,654	-31,15
271,027	-30,98
271,4	-30,9
271,773	-30,58
272,146	-30,32
272,519	-30,05
272,891	-29,96
273,264	-29,92
273,637	-29,61
274,01	-29,27
274,382	-29,83
274,755	-30,44
275,127	-30,8
275,5	-31
275,872	-30,99
276,245	-31,36
276,617	-32,32
276,99	-32,94
277,362	-33,93
277,734	-34,28
278,107	-34,03
278,479	-33,75
278,851	-33,33
279,223	-32,9
279,596	-32,43
279,968	-32,33
280,34	-31,84
280,712	-31,14
281,084	-29,94
281,456	-28,62
281,828	-27,34
282,2	-25,4
282,572	-23,69
282,944	-22,5
283,315	-21,74
283,687	-21,1
284,059	-20,65
284,431	-20,2
284,802	-19,86
285,174	-19,38
285,546	-19,05
285,917	-18,71
286,289	-18,32
286,66	-18,17
287,032	-17,82
287,403	-17,62
287,775	-17,34
288,146	-17,29
288,518	-17,35
288,889	-17,14
289,26	-16,97
289,632	-17,27
290,003	-17,82
290,374	-18,19
290,745	-18,5
291,116	-18,54
291,487	-18,43
291,858	-18,19
292,229	-17,88
292,6	-17,35
292,971	-16,52
293,342	-15,7
293,713	-14,89
294,084	-14,19
294,455	-13,28
294,826	-12,74
295,196	-12,47
295,567	-12,59
295,938	-12,49
296,308	-12,22
296,679	-12,01
297,05	-11,82
297,42	-11,27
297,791	-10,57
298,161	-10,16
298,532	-9,71
298,902	-9,5
299,272	-9,4
299,643	-9,35
300,013	-9,06
300,383	-8,86
300,754	-8,92
301,124	-9,15
301,494	-9,4
301,864	-9,49
302,234	-9,69
302,604	-9,62
302,974	-9,37
303,344	-8,79
303,714	-8,33
304,084	-7,93
304,454	-7,7
304,824	-7,62
305,194	-7,71
305,563	-7,8
305,933	-7,68
306,303	-7,31
306,673	-6,7
307,042	-6
307,412	-5,19
307,781	-4,54
308,151	-4,09
308,521	-3,56
308,89	-3
309,259	-2,68
309,629	-2,48
309,998	-2,36
310,368	-2,32
310,737	-2,2
311,106	-2,15
311,475	-1,98
311,845	-1,99
312,214	-1,91
312,583	-1,71
312,952	-1,54
313,321	-1,31
313,69	-0,95
314,059	-0,68
314,428	-0,64
314,797	-0,69
315,166	-0,9
315,535	-1,16
315,904	-1,34
316,272	-1,53
316,641	-1,7
317,01	-1,61
317,379	-1,53
317,747	-1,24
318,116	-0,82
318,484	-0,48
318,853	-0,19
319,221	-0,06
319,59	0,05
319,958	0,26
320,327	0,42
320,695	0,8
321,063	1,24
321,432	1,55
321,8	1,9
322,168	2,16
322,536	2,35
322,905	2,82
323,273	3,3
323,641	3,81
324,009	4,18
324,377	4,44
324,745	4,69
325,113	4,97
325,481	5,22
325,849	5,31
326,216	5,44
326,584	5,64
326,952	5,92
327,32	6,31
327,687	6,56
328,055	6,91
328,423	7,15
328,79	7,21
329,158	7,27
329,525	7,3
329,893	7,5
330,26	7,7
330,628	7,87
330,995	8,07
331,362	8,13
331,73	8,23
332,097	8,41
332,464	8,59
332,831	8,83
333,199	9,02
333,566	9,31
333,933	9,59
334,3	9,77
334,667	9,88
335,034	10,06
335,401	10,29
335,768	10,47
336,135	10,64
336,502	10,91
336,868	11,12
337,235	11,27
337,602	11,37
337,969	11,53
338,335	11,65
338,702	11,74
339,069	11,81
339,435	11,88
339,802	12,05
340,168	12,17
340,535	12,25
340,901	12,27
341,267	12,21
341,634	12,25
342	12,52
342,366	12,73
342,733	12,77
343,099	12,85
343,465	12,89
343,831	12,93
344,197	12,94
344,563	13,04
344,929	13,17
345,295	13,35
345,661	13,57
346,027	13,7
346,393	13,82
346,759	13,99
347,125	14,16
347,491	14,24
347,856	14,35
348,222	14,46
348,588	14,68
348,953	14,96
349,319	15,15
349,684	15,18
350,05	15,28
350,415	15,45
350,781	15,6
351,146	15,75
351,512	15,87
351,877	15,96
352,242	15,99
352,608	16,07
352,973	16,16
353,338	16,22
353,703	16,34
354,068	16,4
354,433	16,56
354,798	16,69
355,164	16,89
355,528	17,01
355,893	17,09
356,258	17,13
356,623	17,26
356,988	17,33
357,353	17,48
357,718	17,64
358,082	17,74
358,447	17,8
358,812	17,93
359,176	18,11
359,541	18,27
359,905	18,42
360,27	18,54
360,634	18,6
360,999	18,69
361,363	18,77
361,728	18,9
362,092	19
362,456	19,04
362,821	19,07
363,185	19,18
363,549	19,29
363,913	19,43
364,277	19,45
364,641	19,56
365,005	19,65
365,369	19,72
365,733	19,8
366,097	19,9
366,461	19,98
366,825	20
367,189	20,03
367,553	20,13
367,916	20,24
368,28	20,4
368,644	20,57
369,007	20,7
369,371	20,81
369,734	20,91
370,098	21,03
370,461	21,16
370,825	21,26
371,188	21,4
371,552	21,49
371,915	21,64
372,278	21,78
372,642	21,89
373,005	22,01
373,368	22,19
373,731	22,42
374,094	22,56
374,457	22,65
374,82	22,76
375,183	22,85
375,546	22,95
375,909	23,06
376,272	23,12
376,635	23,22
376,998	23,29
377,361	23,34
377,723	23,48
378,086	23,59
378,449	23,63
378,811	23,65
379,174	23,73
379,537	23,81
379,899	23,83
380,262	23,89
380,624	23,92
380,987	23,95
381,349	24
381,711	24,06
382,074	24,16
382,436	24,29
382,798	24,53
383,16	24,58
383,522	24,58
383,884	24,61
384,247	24,62
384,609	24,73
384,971	24,8
385,333	24,8
385,695	24,78
386,056	24,84
386,418	24,87
386,78	24,92
387,142	24,93
387,504	25,01
387,865	25,02
388,227	25,07
388,589	25,09
388,95	25,05
389,312	25,11
389,673	25,16
390,035	25,16
390,396	25,12
390,758	25,16
391,119	25,21
391,48	25,23
391,842	25,3
392,203	25,31
392,564	25,36
392,925	25,43
393,286	25,49
393,648	25,52
394,009	25,59
394,37	25,57
394,731	25,6
395,092	25,58
395,452	25,62
395,813	25,66
396,174	25,7
396,535	25,8
396,896	25,77
397,257	25,79
397,617	25,83
397,978	25,82
398,338	25,84
398,699	25,88
399,06	26,02
399,42	26,06
399,781	26,05
400,141	26,08
400,501	26,11
400,862	26,16
401,222	26,22
401,582	26,25
401,943	26,34
402,303	26,39
402,663	26,47
403,023	26,52
403,383	26,56
403,743	26,6
404,103	26,62
404,463	26,65
404,823	26,72
405,183	26,77
405,543	26,81
405,903	26,87
406,262	26,87
406,622	26,82
406,982	26,88
407,342	26,94
407,701	26,96
408,061	27
408,42	27,01
408,78	27,02
409,139	27,03
409,499	27,01
409,858	27,05
410,217	27,11
410,577	27,11
410,936	27,14
411,295	27,12
411,655	27,08
412,014	27,11
412,373	27,1
412,732	27,1
413,091	27,09
413,45	27,08
413,809	27,1
414,168	27,09
414,527	27,08
414,886	27,06
415,245	27,08
415,603	27,04
415,962	27,06
416,321	27,05
416,679	27,04
417,038	27,02
417,397	26,97
417,755	26,93
418,114	26,94
418,472	26,94
418,831	26,97
419,189	26,99
419,547	26,99
419,906	26,99
420,264	26,96
420,622	26,97
420,981	26,97
421,339	27
421,697	27,01
422,055	27,02
422,413	27,03
422,771	27,05
423,129	27,08
423,487	27,09
423,845	27,11
424,203	27,13
424,56	27,19
424,918	27,26
425,276	27,31
425,634	27,34
425,991	27,36
426,349	27,37
426,707	27,41
427,064	27,46
427,422	27,49
427,779	27,57
428,137	27,65
428,494	27,69
428,851	27,71
429,209	27,72
429,566	27,74
429,923	27,79
430,28	27,78
430,637	27,8
430,995	27,8
431,352	27,84
431,709	27,88
432,066	27,91
432,423	27,94
432,78	27,95
433,137	27,96
433,493	27,98
433,85	28,05
434,207	28,05
434,564	28,03
434,92	28,07
435,277	28,09
435,634	28,08
435,99	28,07
436,347	28,09
436,703	28,12
437,06	28,13
437,416	28,15
437,773	28,18
438,129	28,18
438,485	28,22
438,841	28,23
439,198	28,23
439,554	28,21
439,91	28,22
440,266	28,23
440,622	28,25
440,978	28,26
441,334	28,24
441,69	28,24
442,046	28,26
442,402	28,25
442,758	28,26
443,113	28,27
443,469	28,3
443,825	28,3
444,181	28,31
444,536	28,35
444,892	28,36
445,247	28,38
445,603	28,41
445,958	28,43
446,314	28,44
446,669	28,48
447,025	28,49
447,38	28,5
447,735	28,52
448,09	28,51
448,446	28,53
448,801	28,55
449,156	28,56
449,511	28,61
449,866	28,65
450,221	28,68
450,576	28,73
450,931	28,78
451,286	28,84
451,641	28,9
451,995	28,93
452,35	28,96
452,705	28,99
453,06	29,02
453,414	29
453,769	29,03
454,123	29,01
454,478	29,01
454,832	29,02
455,187	28,98
455,541	29,01
455,896	29
456,25	28,99
456,604	29
456,958	28,98
457,313	28,96
457,667	28,95
458,021	28,92
458,375	28,93
458,729	28,95
459,083	28,97
459,437	28,97
459,791	28,97
460,145	28,98
460,499	28,98
460,852	28,98
461,206	28,98
461,56	28,99
461,914	29,05
462,267	29,05
462,621	29,07
462,974	29,1
463,328	29,14
463,681	29,16
464,035	29,19
464,388	29,21
464,742	29,25
465,095	29,28
465,448	29,31
465,801	29,32
466,155	29,29
466,508	29,25
466,861	29,26
467,214	29,29
467,567	29,31
467,92	29,31
468,273	29,34
468,626	29,34
468,979	29,34
469,332	29,32
469,684	29,33
470,037	29,37
470,39	29,36
470,743	29,36
471,095	29,35
471,448	29,36
471,8	29,39
472,153	29,41
472,505	29,43
472,858	29,43
473,21	29,45
473,562	29,46
473,915	29,48
474,267	29,49
474,619	29,5
474,971	29,49
475,324	29,51
475,676	29,52
476,028	29,54
476,38	29,55
476,732	29,57
477,084	29,6
477,436	29,57
477,787	29,59
478,139	29,62
478,491	29,67
478,843	29,65
479,195	29,65
479,546	29,6
479,898	29,6
480,249	29,65
480,601	29,72
480,952	29,76
481,304	29,76
481,655	29,77
482,007	29,77
482,358	29,76
482,709	29,74
483,061	29,72
483,412	29,72
483,763	29,72
484,114	29,72
484,465	29,71
484,816	29,72
485,167	29,73
485,518	29,72
485,869	29,72
486,22	29,73
486,571	29,74
486,922	29,76
487,272	29,76
487,623	29,75
487,974	29,71
488,324	29,68
488,675	29,69
489,025	29,67
489,376	29,66
489,726	29,67
490,077	29,7
490,427	29,73
490,778	29,74
491,128	29,75
491,478	29,75
491,828	29,75
492,179	29,76
492,529	29,77
492,879	29,78
493,229	29,79
493,579	29,81
493,929	29,84
494,279	29,87
494,629	29,9
494,979	29,92
495,328	29,94
495,678	29,97
496,028	30
496,378	30,04
496,727	30,06
497,077	30,11
497,426	30,13
497,776	30,13
498,125	30,13
498,475	30,16
498,824	30,19
499,174	30,23
499,523	30,23
499,872	30,25
500,221	30,28
500,571	30,32
500,92	30,32
501,269	30,34
501,618	30,34
501,967	30,34
502,316	30,34
502,665	30,36
503,014	30,39
503,363	30,38
503,711	30,39
504,06	30,42
504,409	30,37
504,758	30,36
505,106	30,36
505,455	30,39
505,803	30,39
506,152	30,34
506,5	30,35
506,849	30,36
507,197	30,35
507,546	30,33
507,894	30,33
508,242	30,34
508,59	30,33
508,939	30,33
509,287	30,34
509,635	30,37
509,983	30,37
510,331	30,38
510,679	30,41
511,027	30,44
511,375	30,44
511,723	30,48
512,07	30,49
512,418	30,51
512,766	30,5
513,114	30,53
513,461	30,59
513,809	30,59
514,156	30,59
514,504	30,61
514,851	30,61
515,199	30,6
515,546	30,61
515,893	30,6
516,241	30,61
516,588	30,63
516,935	30,63
517,282	30,64
517,63	30,64
517,977	30,63
518,324	30,63
518,671	30,64
519,018	30,64
519,365	30,66
519,711	30,67
520,058	30,68
520,405	30,67
520,752	30,69
521,099	30,69
521,445	30,72
521,792	30,74
522,138	30,75
522,485	30,73
522,832	30,74
523,178	30,76
523,524	30,76
523,871	30,77
524,217	30,78
524,563	30,77
524,91	30,74
525,256	30,76
525,602	30,79
525,948	30,81
526,294	30,81
526,64	30,8
526,986	30,81
527,332	30,81
527,678	30,82
528,024	30,81
528,37	30,83
528,716	30,83
529,061	30,82
529,407	30,83
529,753	30,84
530,098	30,85
530,444	30,86
530,789	30,86
531,135	30,86
531,48	30,85
531,826	30,86
532,171	30,89
532,516	30,9
532,862	30,9
533,207	30,88
533,552	30,88
533,897	30,91
534,242	30,91
534,587	30,91
534,932	30,92
535,277	30,91
535,622	30,91
535,967	30,94
536,312	30,96
536,657	30,99
537,001	31,03
537,346	31,04
537,691	31,03
538,035	31,02
538,38	31,03
538,724	31,05
539,069	31,06
539,413	31,05
539,758	31,04
540,102	31,05
540,446	31,07
540,791	31,08
541,135	31,07
541,479	31,08
541,823	31,09
542,167	31,1
542,512	31,11
542,856	31,11
543,2	31,1
543,543	31,08
543,887	31,07
544,231	31,07
544,575	31,07
544,919	31,07
545,262	31,1
545,606	31,12
545,95	31,14
546,293	31,15
546,637	31,15
546,98	31,17
547,324	31,18
547,667	31,2
548,011	31,21
548,354	31,21
548,697	31,2
549,04	31,19
549,384	31,2
549,727	31,2
550,07	31,21
550,413	31,22
550,756	31,26
551,099	31,28
551,442	31,28
551,785	31,33
552,128	31,35
552,47	31,34
552,813	31,33
553,156	31,32
553,499	31,31
553,841	31,32
554,184	31,3
554,526	31,28
554,869	31,27
555,211	31,26
555,554	31,26
555,896	31,26
556,238	31,25
556,581	31,22
556,923	31,22
557,265	31,2
557,607	31,14
557,949	31,14
558,291	31,14
558,633	31,16
558,975	31,1
559,317	31,11
559,659	31,14
560,001	31,14
560,343	31,1
560,685	31,12
561,026	31,1
561,368	31,08
561,71	31,04
562,051	31
562,393	31,01
562,734	30,98
563,076	30,98
563,417	30,97
563,759	30,97
564,1	30,96
564,441	30,97
564,782	30,95
565,124	30,91
565,465	30,9
565,806	30,85
566,147	30,84
566,488	30,8
566,829	30,77
567,17	30,76
567,511	30,78
567,851	30,75
568,192	30,76
568,533	30,78
568,874	30,8
569,214	30,84
569,555	30,82
569,895	30,86
570,236	30,86
570,576	30,85
570,917	30,81
571,257	30,79
571,598	30,79
571,938	30,83
572,278	30,84
572,618	30,82
572,959	30,86
573,299	30,85
573,639	30,85
573,979	30,87
574,319	30,87
574,659	30,85
574,999	30,85
575,339	30,86
575,678	30,84
576,018	30,83
576,358	30,8
576,698	30,81
577,037	30,77
577,377	30,73
577,716	30,74
578,056	30,78
578,395	30,75
578,735	30,74
579,074	30,72
579,413	30,71
579,753	30,7
580,092	30,61
580,431	30,61
580,77	30,63
581,109	30,62
581,448	30,57
581,787	30,56
582,126	30,55
582,465	30,55
582,804	30,52
583,143	30,53
583,482	30,49
583,82	30,49
584,159	30,49
584,498	30,53
584,836	30,55
585,175	30,53
585,514	30,53
585,852	30,57
586,19	30,58
586,529	30,57
586,867	30,57
587,205	30,56
587,544	30,58
587,882	30,55
588,22	30,53
588,558	30,54
588,896	30,59
589,234	30,58
589,572	30,54
589,91	30,55
590,248	30,55
590,586	30,57
590,924	30,57
591,262	30,61
591,599	30,56
591,937	30,55
592,275	30,54
592,612	30,55
592,95	30,52
593,287	30,53
593,625	30,54
593,962	30,56
594,299	30,62
594,637	30,62
594,974	30,64
595,311	30,65
595,648	30,69
595,985	30,64
596,322	30,66
596,659	30,72
596,996	30,72
597,333	30,71
597,67	30,67
598,007	30,64
598,344	30,61
598,681	30,65
599,017	30,65
599,354	30,69
599,691	30,71
600,027	30,73
600,364	30,69
600,7	30,73
601,037	30,76
601,373	30,75
601,71	30,81
602,046	30,82
602,382	30,82
602,718	30,82
603,054	30,86
603,391	30,87
603,727	30,83
604,063	30,86
604,399	30,86
604,735	30,89
605,071	30,92
605,406	30,94
605,742	30,95
606,078	30,97
606,414	30,96
606,749	30,99
607,085	30,97
607,421	31,03
607,756	31,02
608,092	31
608,427	30,97
608,762	30,92
609,098	30,89
609,433	30,88
609,768	30,85
610,104	30,83
610,439	30,8
610,774	30,81
611,109	30,74
611,444	30,71
611,779	30,7
612,114	30,65
612,449	30,66
612,784	30,62
613,118	30,59
613,453	30,56
613,788	30,49
614,123	30,46
614,457	30,42
614,792	30,39
615,126	30,33
615,461	30,34
615,795	30,32
616,13	30,33
616,464	30,35
616,798	30,29
617,132	30,3
617,467	30,32
617,801	30,29
618,135	30,34
618,469	30,38
618,803	30,4
619,137	30,46
619,471	30,44
619,805	30,45
620,139	30,48
620,472	30,53
620,806	30,54
621,14	30,55
621,473	30,54
621,807	30,55
622,141	30,63
622,474	30,57
622,808	30,59
623,141	30,61
623,474	30,59
623,808	30,66
624,141	30,69
624,474	30,74
624,807	30,77
625,141	30,76
625,474	30,79
625,807	30,82
626,14	30,78
626,473	30,82
626,806	30,85
627,138	30,81
627,471	30,76
627,804	30,77
628,137	30,8
628,469	30,79
628,802	30,75
629,135	30,73
629,467	30,77
629,8	30,76
630,132	30,77
630,465	30,82
630,797	30,83
631,129	30,79
631,461	30,76
631,794	30,75
632,126	30,78
632,458	30,74
632,79	30,79
633,122	30,83
633,454	30,81
633,786	30,79
634,118	30,78
634,45	30,83
634,781	30,83
635,113	30,79
635,445	30,83
635,777	30,88
636,108	30,88
636,44	30,9
636,771	30,89
637,103	30,89
637,434	30,86
637,765	30,82
638,097	30,84
638,428	30,85
638,759	30,86
639,09	30,84
639,422	30,84
639,753	30,78
640,084	30,73
640,415	30,72
640,746	30,69
641,077	30,7
641,407	30,71
641,738	30,74
642,069	30,78
642,4	30,81
642,73	30,79
643,061	30,78
643,392	30,7
643,722	30,72
644,053	30,71
644,383	30,7
644,713	30,73
645,044	30,78
