Data from zc74010_4_Reflection_00004.txt Node
Date: Thu Mar 12 15:01:26 ART 2020
User: Ana
Spectrometer: USB2E3644
Trigger mode: 4
Integration Time (sec): 5,000000E-2
Scans to average: 10
Electric dark correction enabled: true
Nonlinearity correction enabled: false
Boxcar width: 10
XAxis mode: Wavelengths
Number of Pixels in Spectrum: 2048
>>>>>Begin Spectral Data<<<<<
178,315	102,97
178,696	106,2
179,076	116,32
179,457	114,61
179,838	134,76
180,218	182,96
180,599	772,22
180,979	41,94
181,36	343,06
181,74	180,25
182,121	125,42
182,501	104,06
182,881	98,48
183,262	98,75
183,642	100,45
184,022	98,7
184,402	97,2
184,783	95,56
185,163	93,29
185,543	94,64
185,923	95,17
186,303	94,2
186,683	92,12
187,063	92,35
187,443	93,93
187,823	96,84
188,203	99,14
188,583	99,82
188,963	99
189,343	97,3
189,723	98,33
190,102	102,31
190,482	107,5
190,862	110,49
191,242	112,74
191,621	114,06
192,001	116,08
192,38	117,61
192,76	118,16
193,14	119,25
193,519	120,09
193,898	122,55
194,278	124,95
194,657	127,42
195,037	127,27
195,416	123,09
195,795	119,73
196,175	117,67
196,554	116,48
196,933	115,92
197,312	115,98
197,692	115,68
198,071	115,14
198,45	115,54
198,829	116,1
199,208	117,27
199,587	117,36
199,966	116,72
200,345	115,82
200,724	115,88
201,103	116,35
201,482	116,82
201,86	116,31
202,239	114,33
202,618	113,32
202,997	114,73
203,375	117,68
203,754	120,08
204,133	121,56
204,511	121,45
204,89	121,8
205,269	122,15
205,647	121,33
206,026	120,59
206,404	120,71
206,782	119,94
207,161	118,58
207,539	117,77
207,918	118
208,296	118,72
208,674	119,16
209,052	119,96
209,431	120,44
209,809	120,73
210,187	121,86
210,565	122,38
210,943	121,48
211,321	120,47
211,699	120,25
212,077	120,29
212,455	120,8
212,833	121,22
213,211	121,2
213,589	122,14
213,967	122,67
214,345	121,6
214,722	122,62
215,1	123,25
215,478	123,19
215,855	123,31
216,233	123,57
216,611	124,38
216,988	123,42
217,366	121,81
217,743	121,34
218,121	122,11
218,498	123,62
218,876	124,58
219,253	124,15
219,631	123,37
220,008	122,83
220,385	122,74
220,762	121,7
221,14	120,36
221,517	118,78
221,894	117,79
222,271	116,92
222,648	115,37
223,025	113,88
223,402	113,39
223,78	113,07
224,157	112,4
224,533	111,12
224,91	111,56
225,287	113,69
225,664	115,93
226,041	116,88
226,418	116,83
226,795	116,94
227,171	117,72
227,548	118,71
227,925	119,29
228,301	120,82
228,678	123
229,055	125,63
229,431	127,91
229,808	129,65
230,184	131,4
230,561	133,76
230,937	136,92
231,313	139,19
231,69	140,72
232,066	143,29
232,442	145,31
232,819	145,6
233,195	144,06
233,571	142,86
233,947	144,4
234,323	147,01
234,699	149,27
235,075	151,84
235,451	154,39
235,827	157,05
236,203	158,73
236,579	160,02
236,955	163,19
237,331	171,23
237,707	182,49
238,083	196,51
238,459	213,26
238,834	240,3
239,21	284,28
239,586	342,98
239,961	407,62
240,337	479,68
240,713	547,23
241,088	626,45
241,464	726,38
241,839	856,11
242,215	1134,36
242,59	2653,4
242,965	-1622,71
243,341	-460,84
243,716	-248,02
244,091	-176,12
244,467	-144,87
244,842	-127,56
245,217	-115,88
245,592	-110,15
245,967	-109,41
246,343	-106,49
246,718	-104,81
247,093	-106,66
247,468	-109,18
247,843	-108,55
248,218	-103,56
248,593	-95,68
248,967	-87,38
249,342	-82,64
249,717	-79,92
250,092	-78,55
250,467	-79,68
250,841	-84,78
251,216	-96,65
251,591	-116,89
251,965	-140,27
252,34	-159,5
252,714	-179,41
253,089	-193,24
253,463	-203,17
253,838	-200,52
254,212	-194,56
254,587	-182,88
254,961	-160,43
255,335	-135,23
255,71	-111,21
256,084	-86,41
256,458	-68,58
256,832	-58,1
257,206	-52,01
257,581	-48,77
257,955	-46,67
258,329	-44,24
258,703	-41,73
259,077	-39,76
259,451	-37,76
259,825	-36,89
260,199	-36,79
260,572	-36,11
260,946	-36,04
261,32	-35,46
261,694	-34,9
262,068	-34,86
262,441	-34,71
262,815	-34,98
263,189	-35,07
263,562	-35,64
263,936	-38,11
264,309	-41,97
264,683	-46,06
265,056	-48,34
265,43	-49,45
265,803	-49,58
266,176	-49,14
266,55	-48,91
266,923	-48,32
267,296	-47,67
267,67	-45,64
268,043	-43,69
268,416	-41,32
268,789	-38,54
269,162	-35,88
269,535	-33,35
269,908	-31,43
270,281	-30,49
270,654	-30,3
271,027	-30,7
271,4	-31,17
271,773	-31,15
272,146	-31,11
272,519	-31,07
272,891	-31,01
273,264	-30,9
273,637	-30,63
274,01	-30,5
274,382	-31,01
274,755	-31,27
275,127	-31,46
275,5	-32,02
275,872	-32,28
276,245	-32,72
276,617	-33,74
276,99	-34,62
277,362	-35,82
277,734	-36,62
278,107	-36,55
278,479	-36,09
278,851	-35,25
279,223	-34,39
279,596	-33,65
279,968	-33,24
280,34	-32,6
280,712	-31,95
281,084	-30,63
281,456	-29,36
281,828	-28,22
282,2	-26,3
282,572	-24,57
282,944	-23,35
283,315	-22,53
283,687	-21,76
284,059	-21,18
284,431	-20,55
284,802	-19,78
285,174	-19,07
285,546	-18,32
285,917	-17,59
286,289	-17,02
286,66	-16,77
287,032	-16,39
287,403	-16,19
287,775	-16,13
288,146	-16,3
288,518	-16,59
288,889	-16,66
289,26	-16,66
289,632	-16,87
290,003	-17,24
290,374	-17,52
290,745	-17,57
291,116	-17,43
291,487	-17,31
291,858	-17,05
292,229	-16,77
292,6	-16,42
292,971	-15,72
293,342	-15,11
293,713	-14,39
294,084	-13,66
294,455	-12,65
294,826	-12,06
295,196	-11,77
295,567	-11,61
295,938	-11,15
296,308	-10,72
296,679	-10,54
297,05	-10,35
297,42	-9,94
297,791	-9,49
298,161	-9,28
298,532	-8,96
298,902	-8,68
299,272	-8,45
299,643	-8,35
300,013	-8,12
300,383	-7,89
300,754	-7,81
301,124	-7,73
301,494	-7,85
301,864	-8,05
302,234	-8,38
302,604	-8,49
302,974	-8,25
303,344	-7,85
303,714	-7,57
304,084	-7,07
304,454	-6,57
304,824	-6,08
305,194	-5,85
305,563	-5,75
305,933	-5,44
306,303	-5,07
306,673	-4,6
307,042	-3,99
307,412	-3,2
307,781	-2,46
308,151	-2,01
308,521	-1,79
308,89	-1,6
309,259	-1,47
309,629	-1,22
309,998	-0,97
310,368	-0,82
310,737	-0,72
311,106	-0,56
311,475	-0,33
311,845	-0,3
312,214	-0,13
312,583	0,05
312,952	0,24
313,321	0,53
313,69	0,93
314,059	1,24
314,428	1,4
314,797	1,37
315,166	1,22
315,535	0,99
315,904	0,78
316,272	0,69
316,641	0,58
317,01	0,71
317,379	0,88
317,747	0,99
318,116	1,27
318,484	1,4
318,853	1,46
319,221	1,5
319,59	1,55
319,958	1,59
320,327	1,6
320,695	1,73
321,063	1,98
321,432	2,15
321,8	2,28
322,168	2,44
322,536	2,52
322,905	2,87
323,273	3,33
323,641	3,81
324,009	4,27
324,377	4,53
324,745	4,73
325,113	5,05
325,481	5,48
325,849	5,75
326,216	6,08
326,584	6,36
326,952	6,58
327,32	6,93
327,687	7,22
328,055	7,51
328,423	7,8
328,79	7,93
329,158	8,01
329,525	8,14
329,893	8,39
330,26	8,75
330,628	8,92
330,995	9,02
331,362	9
331,73	8,97
332,097	9,22
332,464	9,52
332,831	9,7
333,199	9,72
333,566	9,94
333,933	10,15
334,3	10,38
334,667	10,55
335,034	10,72
335,401	10,83
335,768	10,99
336,135	11,08
336,502	11,23
336,868	11,37
337,235	11,4
337,602	11,49
337,969	11,64
338,335	11,8
338,702	11,97
339,069	12,16
339,435	12,32
339,802	12,49
340,168	12,54
340,535	12,59
340,901	12,68
341,267	12,67
341,634	12,79
342	12,96
342,366	13,14
342,733	13,2
343,099	13,38
343,465	13,49
343,831	13,67
344,197	13,78
344,563	13,89
344,929	14,07
345,295	14,21
345,661	14,28
346,027	14,34
346,393	14,36
346,759	14,44
347,125	14,56
347,491	14,65
347,856	14,77
348,222	14,84
348,588	14,95
348,953	15,08
349,319	15,12
349,684	15,17
350,05	15,22
350,415	15,29
350,781	15,35
351,146	15,46
351,512	15,57
351,877	15,68
352,242	15,79
352,608	15,89
352,973	16,08
353,338	16,22
353,703	16,36
354,068	16,44
354,433	16,54
354,798	16,7
355,164	16,9
355,528	17,03
355,893	17,14
356,258	17,25
356,623	17,41
356,988	17,58
357,353	17,7
357,718	17,79
358,082	17,89
358,447	17,98
358,812	18,06
359,176	18,09
359,541	18,21
359,905	18,29
360,27	18,4
360,634	18,38
360,999	18,45
361,363	18,57
361,728	18,77
362,092	18,91
362,456	18,95
362,821	18,95
363,185	18,99
363,549	19,12
363,913	19,21
364,277	19,25
364,641	19,26
365,005	19,36
365,369	19,47
365,733	19,58
366,097	19,69
366,461	19,79
366,825	19,87
367,189	19,9
367,553	20,01
367,916	20,17
368,28	20,34
368,644	20,44
369,007	20,51
369,371	20,58
369,734	20,67
370,098	20,77
370,461	20,89
370,825	20,99
371,188	21,1
371,552	21,16
371,915	21,28
372,278	21,44
372,642	21,52
373,005	21,67
373,368	21,82
373,731	21,92
374,094	22,05
374,457	22,18
374,82	22,3
375,183	22,33
375,546	22,34
375,909	22,4
376,272	22,53
376,635	22,64
376,998	22,71
377,361	22,8
377,723	22,92
378,086	22,98
378,449	23,08
378,811	23,14
379,174	23,22
379,537	23,28
379,899	23,27
380,262	23,42
380,624	23,43
380,987	23,5
381,349	23,62
381,711	23,68
382,074	23,78
382,436	23,86
382,798	24,06
383,16	24,12
383,522	24,19
383,884	24,23
384,247	24,31
384,609	24,4
384,971	24,43
385,333	24,46
385,695	24,48
386,056	24,5
386,418	24,47
386,78	24,57
387,142	24,63
387,504	24,7
387,865	24,62
388,227	24,69
388,589	24,73
388,95	24,76
389,312	24,76
389,673	24,83
390,035	24,85
390,396	24,89
390,758	24,93
391,119	24,97
391,48	24,99
391,842	25,04
392,203	25,05
392,564	25,1
392,925	25,15
393,286	25,23
393,648	25,23
394,009	25,34
394,37	25,36
394,731	25,41
395,092	25,44
395,452	25,53
395,813	25,58
396,174	25,61
396,535	25,64
396,896	25,69
397,257	25,72
397,617	25,8
397,978	25,83
398,338	25,87
398,699	25,92
399,06	26
399,42	25,99
399,781	26,01
400,141	26,07
400,501	26,11
400,862	26,17
401,222	26,31
401,582	26,34
401,943	26,36
402,303	26,35
402,663	26,42
403,023	26,47
403,383	26,47
403,743	26,5
404,103	26,49
404,463	26,53
404,823	26,56
405,183	26,61
405,543	26,61
405,903	26,66
406,262	26,69
406,622	26,66
406,982	26,73
407,342	26,82
407,701	26,83
408,061	26,83
408,42	26,81
408,78	26,82
409,139	26,85
409,499	26,92
409,858	26,96
410,217	27
410,577	27
410,936	27,06
411,295	27,07
411,655	27,11
412,014	27,14
412,373	27,11
412,732	27,08
413,091	27,07
413,45	27,09
413,809	27,08
414,168	27,08
414,527	27,05
414,886	27
415,245	26,98
415,603	26,99
415,962	26,99
416,321	26,97
416,679	26,96
417,038	26,9
417,397	26,91
417,755	26,88
418,114	26,88
418,472	26,87
418,831	26,89
419,189	26,88
419,547	26,88
419,906	26,87
420,264	26,86
420,622	26,85
420,981	26,86
421,339	26,87
421,697	26,89
422,055	26,91
422,413	26,93
422,771	26,96
423,129	26,99
423,487	27,01
423,845	27,04
424,203	27,07
424,56	27,13
424,918	27,15
425,276	27,21
425,634	27,25
425,991	27,3
426,349	27,34
426,707	27,39
427,064	27,4
427,422	27,46
427,779	27,55
428,137	27,62
428,494	27,67
428,851	27,72
429,209	27,76
429,566	27,76
429,923	27,8
430,28	27,82
430,637	27,83
430,995	27,83
431,352	27,82
431,709	27,87
432,066	27,86
432,423	27,9
432,78	27,9
433,137	27,9
433,493	27,88
433,85	27,9
434,207	27,89
434,564	27,93
434,92	27,94
435,277	27,92
435,634	27,92
435,99	27,93
436,347	27,94
436,703	27,96
437,06	27,99
437,416	28,01
437,773	28,02
438,129	28,02
438,485	28,07
438,841	28,09
439,198	28,08
439,554	28,09
439,91	28,1
440,266	28,13
440,622	28,14
440,978	28,18
441,334	28,15
441,69	28,18
442,046	28,19
442,402	28,21
442,758	28,23
443,113	28,23
443,469	28,25
443,825	28,26
444,181	28,25
444,536	28,29
444,892	28,29
445,247	28,32
445,603	28,35
445,958	28,37
446,314	28,37
446,669	28,39
447,025	28,41
447,38	28,42
447,735	28,42
448,09	28,43
448,446	28,43
448,801	28,46
449,156	28,46
449,511	28,47
449,866	28,5
450,221	28,55
450,576	28,62
450,931	28,67
451,286	28,73
451,641	28,81
451,995	28,84
452,35	28,87
452,705	28,9
453,06	28,88
453,414	28,91
453,769	28,92
454,123	28,91
454,478	28,94
454,832	28,99
455,187	28,98
455,541	28,98
455,896	29,01
456,25	29,03
456,604	29,06
456,958	29,09
457,313	29,09
457,667	29,09
458,021	29,09
458,375	29,1
458,729	29,1
459,083	29,11
459,437	29,11
459,791	29,15
460,145	29,18
460,499	29,22
460,852	29,22
461,206	29,24
461,56	29,26
461,914	29,26
462,267	29,24
462,621	29,27
462,974	29,3
463,328	29,33
463,681	29,32
464,035	29,34
464,388	29,34
464,742	29,37
465,095	29,38
465,448	29,39
465,801	29,4
466,155	29,4
466,508	29,38
466,861	29,38
467,214	29,36
467,567	29,34
467,92	29,35
468,273	29,36
468,626	29,38
468,979	29,39
469,332	29,39
469,684	29,39
470,037	29,42
470,39	29,43
470,743	29,43
471,095	29,5
471,448	29,48
471,8	29,5
472,153	29,51
472,505	29,55
472,858	29,58
473,21	29,56
473,562	29,55
473,915	29,6
474,267	29,63
474,619	29,65
474,971	29,65
475,324	29,65
475,676	29,67
476,028	29,64
476,38	29,69
476,732	29,71
477,084	29,74
477,436	29,69
477,787	29,7
478,139	29,72
478,491	29,7
478,843	29,72
479,195	29,73
479,546	29,7
479,898	29,68
480,249	29,73
480,601	29,83
480,952	29,88
481,304	29,9
481,655	29,9
482,007	29,92
482,358	29,94
482,709	29,93
483,061	29,91
483,412	29,91
483,763	29,89
484,114	29,89
484,465	29,9
484,816	29,92
485,167	29,94
485,518	29,94
485,869	29,96
486,22	29,97
486,571	29,96
486,922	29,99
487,272	30
487,623	29,98
487,974	29,93
488,324	29,92
488,675	29,9
489,025	29,91
489,376	29,91
489,726	29,9
490,077	29,94
490,427	29,97
490,778	29,99
491,128	30,01
491,478	30,02
491,828	30,03
492,179	30,05
492,529	30,02
492,879	30,02
493,229	30,03
493,579	30,04
493,929	30,07
494,279	30,11
494,629	30,13
494,979	30,18
495,328	30,23
495,678	30,26
496,028	30,3
496,378	30,32
496,727	30,34
497,077	30,39
497,426	30,4
497,776	30,37
498,125	30,37
498,475	30,38
498,824	30,42
499,174	30,44
499,523	30,47
499,872	30,49
500,221	30,52
500,571	30,55
500,92	30,51
501,269	30,54
501,618	30,52
501,967	30,55
502,316	30,55
502,665	30,56
503,014	30,54
503,363	30,55
503,711	30,56
504,06	30,56
504,409	30,54
504,758	30,52
505,106	30,55
505,455	30,56
505,803	30,58
506,152	30,54
506,5	30,54
506,849	30,55
507,197	30,55
507,546	30,57
507,894	30,57
508,242	30,62
508,59	30,6
508,939	30,61
509,287	30,62
509,635	30,61
509,983	30,62
510,331	30,63
510,679	30,66
511,027	30,66
511,375	30,65
511,723	30,64
512,07	30,65
512,418	30,68
512,766	30,68
513,114	30,71
513,461	30,76
513,809	30,76
514,156	30,77
514,504	30,77
514,851	30,74
515,199	30,75
515,546	30,74
515,893	30,75
516,241	30,77
516,588	30,77
516,935	30,81
517,282	30,83
517,63	30,84
517,977	30,84
518,324	30,87
518,671	30,9
519,018	30,93
519,365	30,95
519,711	30,96
520,058	30,98
520,405	31
520,752	31,03
521,099	31,02
521,445	31,01
521,792	31,04
522,138	31,06
522,485	31,07
522,832	31,1
523,178	31,11
523,524	31,13
523,871	31,14
524,217	31,12
524,563	31,1
524,91	31,09
525,256	31,11
525,602	31,15
525,948	31,15
526,294	31,17
526,64	31,19
526,986	31,2
527,332	31,2
527,678	31,19
528,024	31,2
528,37	31,24
528,716	31,26
529,061	31,25
529,407	31,26
529,753	31,25
530,098	31,24
530,444	31,25
530,789	31,26
531,135	31,28
531,48	31,29
531,826	31,32
532,171	31,35
532,516	31,35
532,862	31,34
533,207	31,34
533,552	31,34
533,897	31,33
534,242	31,32
534,587	31,31
534,932	31,33
535,277	31,33
535,622	31,31
535,967	31,31
536,312	31,34
536,657	31,35
537,001	31,39
537,346	31,43
537,691	31,43
538,035	31,42
538,38	31,41
538,724	31,4
539,069	31,4
539,413	31,42
539,758	31,43
540,102	31,43
540,446	31,46
540,791	31,48
541,135	31,51
541,479	31,51
541,823	31,53
542,167	31,5
542,512	31,49
542,856	31,47
543,2	31,48
543,543	31,49
543,887	31,49
544,231	31,5
544,575	31,5
544,919	31,53
545,262	31,54
545,606	31,56
545,95	31,58
546,293	31,58
546,637	31,59
546,98	31,58
547,324	31,59
547,667	31,59
548,011	31,57
548,354	31,56
548,697	31,56
549,04	31,56
549,384	31,58
549,727	31,6
550,07	31,64
550,413	31,63
550,756	31,64
551,099	31,63
551,442	31,61
551,785	31,63
552,128	31,64
552,47	31,63
552,813	31,61
553,156	31,62
553,499	31,61
553,841	31,62
554,184	31,63
554,526	31,61
554,869	31,61
555,211	31,57
555,554	31,56
555,896	31,57
556,238	31,59
556,581	31,61
556,923	31,59
557,265	31,56
557,607	31,56
557,949	31,54
558,291	31,55
558,633	31,57
558,975	31,56
559,317	31,53
559,659	31,51
560,001	31,5
560,343	31,5
560,685	31,5
561,026	31,5
561,368	31,47
561,71	31,44
562,051	31,46
562,393	31,51
562,734	31,49
563,076	31,48
563,417	31,45
563,759	31,45
564,1	31,47
564,441	31,48
564,782	31,43
565,124	31,43
565,465	31,44
565,806	31,43
566,147	31,42
566,488	31,41
566,829	31,44
567,17	31,47
567,511	31,45
567,851	31,45
568,192	31,43
568,533	31,45
568,874	31,47
569,214	31,47
569,555	31,44
569,895	31,45
570,236	31,45
570,576	31,44
570,917	31,43
571,257	31,4
571,598	31,41
571,938	31,42
572,278	31,44
572,618	31,41
572,959	31,41
573,299	31,41
573,639	31,43
573,979	31,4
574,319	31,37
574,659	31,35
574,999	31,36
575,339	31,35
575,678	31,33
576,018	31,31
576,358	31,28
576,698	31,29
577,037	31,31
577,377	31,29
577,716	31,25
578,056	31,26
578,395	31,25
578,735	31,24
579,074	31,26
579,413	31,27
579,753	31,24
580,092	31,17
580,431	31,11
580,77	31,08
581,109	31,09
581,448	31,06
581,787	31,03
582,126	31
582,465	31
582,804	30,98
583,143	30,99
583,482	30,99
583,82	30,99
584,159	30,94
584,498	30,89
584,836	30,93
585,175	30,89
585,514	30,91
585,852	30,93
586,19	30,91
586,529	30,88
586,867	30,89
587,205	30,92
587,544	30,95
587,882	30,98
588,22	30,98
588,558	31,01
588,896	31,04
589,234	31,05
589,572	31,03
589,91	31,03
590,248	31,02
590,586	31
590,924	31,02
591,262	31,04
591,599	31,06
591,937	31,08
592,275	31,08
592,612	31,06
592,95	31,07
593,287	31,08
593,625	31,08
593,962	31,13
594,299	31,18
594,637	31,22
594,974	31,21
595,311	31,23
595,648	31,22
595,985	31,25
596,322	31,27
596,659	31,29
596,996	31,3
597,333	31,3
597,67	31,3
598,007	31,27
598,344	31,23
598,681	31,26
599,017	31,25
599,354	31,25
599,691	31,27
600,027	31,26
600,364	31,28
600,7	31,32
601,037	31,33
601,373	31,32
601,71	31,32
602,046	31,41
602,382	31,43
602,718	31,47
603,054	31,49
603,391	31,48
603,727	31,45
604,063	31,47
604,399	31,5
604,735	31,53
605,071	31,52
605,406	31,58
605,742	31,58
606,078	31,57
606,414	31,58
606,749	31,61
607,085	31,65
607,421	31,64
607,756	31,67
608,092	31,63
608,427	31,64
608,762	31,62
609,098	31,53
609,433	31,49
609,768	31,48
610,104	31,44
610,439	31,43
610,774	31,47
611,109	31,48
611,444	31,47
611,779	31,44
612,114	31,43
612,449	31,43
612,784	31,39
613,118	31,38
613,453	31,39
613,788	31,36
614,123	31,26
614,457	31,24
614,792	31,18
615,126	31,17
615,461	31,17
615,795	31,16
616,13	31,16
616,464	31,15
616,798	31,11
617,132	31,09
617,467	31,08
617,801	31,07
618,135	31,02
618,469	31,02
618,803	31,05
619,137	31,09
619,471	31,04
619,805	31,04
620,139	31,09
620,472	31,08
620,806	31,08
621,14	31,11
621,473	31,1
621,807	31,05
622,141	31,04
622,474	31,02
622,808	31,05
623,141	31,1
623,474	31,13
623,808	31,15
624,141	31,21
624,474	31,27
624,807	31,26
625,141	31,31
625,474	31,31
625,807	31,33
626,14	31,3
626,473	31,37
626,806	31,43
627,138	31,4
627,471	31,39
627,804	31,42
628,137	31,43
628,469	31,43
628,802	31,48
629,135	31,49
629,467	31,51
629,8	31,51
630,132	31,52
630,465	31,55
630,797	31,57
631,129	31,52
631,461	31,49
631,794	31,48
632,126	31,47
632,458	31,49
632,79	31,47
633,122	31,48
633,454	31,45
633,786	31,43
634,118	31,4
634,45	31,44
634,781	31,38
635,113	31,38
635,445	31,38
635,777	31,39
636,108	31,43
636,44	31,4
636,771	31,34
637,103	31,32
637,434	31,25
637,765	31,2
638,097	31,22
638,428	31,2
638,759	31,17
639,09	31,14
639,422	31,14
639,753	31,11
640,084	31,09
640,415	31,08
640,746	31,06
641,077	31,1
641,407	31,07
641,738	31,09
642,069	31,12
642,4	31,13
642,73	31,08
643,061	31,04
643,392	31,06
643,722	31,09
644,053	31,13
644,383	31,12
644,713	31,13
645,044	31,15
645,374	31,19
645,704	31,22
