Data from zc74010_5_Reflection_00003.txt Node
Date: Thu Mar 12 15:02:05 ART 2020
User: Ana
Spectrometer: USB2E3644
Trigger mode: 4
Integration Time (sec): 5,000000E-2
Scans to average: 10
Electric dark correction enabled: true
Nonlinearity correction enabled: false
Boxcar width: 10
XAxis mode: Wavelengths
Number of Pixels in Spectrum: 2048
>>>>>Begin Spectral Data<<<<<
178,315	93,8
178,696	93,8
179,076	96,5
179,457	99,59
179,838	116,67
180,218	179,26
180,599	894,44
180,979	132,26
181,36	323,61
181,74	154,94
182,121	117,08
182,501	106,47
182,881	97,77
183,262	93,29
183,642	90,74
184,022	89,13
184,402	91,69
184,783	95,46
185,163	95,9
185,543	97,13
185,923	97,77
186,303	99,49
186,683	99,28
187,063	100,41
187,443	103,81
187,823	106,35
188,203	107,59
188,583	108,28
188,963	108,02
189,343	107,19
189,723	108,29
190,102	112,33
190,482	117,78
190,862	121,64
191,242	124,64
191,621	126,05
192,001	126,07
192,38	125,32
192,76	122,93
193,14	121,96
193,519	121,31
193,898	121,39
194,278	121,03
194,657	122,5
195,037	122,8
195,416	119,45
195,795	117,85
196,175	118,14
196,554	117,56
196,933	116,12
197,312	114,52
197,692	113,21
198,071	112,17
198,45	112,07
198,829	112,65
199,208	113,28
199,587	112,82
199,966	112,02
200,345	110,69
200,724	111,22
201,103	112,02
201,482	113,14
201,86	113,8
202,239	113,29
202,618	112,79
202,997	113,3
203,375	115,22
203,754	116,19
204,133	116,45
204,511	116,26
204,89	117,15
205,269	118,59
205,647	119,6
206,026	119,67
206,404	119,98
206,782	120
207,161	119,92
207,539	120,3
207,918	121,92
208,296	124,16
208,674	124,79
209,052	125,38
209,431	126,24
209,809	126,82
210,187	126,79
210,565	126,38
210,943	126,09
211,321	126,02
211,699	127,51
212,077	129,39
212,455	130,57
212,833	131,25
213,211	131,59
213,589	132,95
213,967	133,46
214,345	132,95
214,722	133,39
215,1	133,28
215,478	133,24
215,855	133,46
216,233	133,43
216,611	135,02
216,988	134,9
217,366	132,89
217,743	132,36
218,121	134,04
218,498	135,73
218,876	135,65
219,253	134,39
219,631	132,56
220,008	130,09
220,385	128,55
220,762	127,06
221,14	125,37
221,517	122,73
221,894	121,5
222,271	119,85
222,648	117,71
223,025	116,38
223,402	115,77
223,78	114,81
224,157	114,03
224,533	112,53
224,91	112,78
225,287	114,51
225,664	115,24
226,041	114,58
226,418	114,41
226,795	114,83
227,171	115,36
227,548	116,54
227,925	117,2
228,301	118,49
228,678	120,54
229,055	122
229,431	123,43
229,808	124,77
230,184	126,35
230,561	128,6
230,937	131,28
231,313	133,9
231,69	135,31
232,066	137,01
232,442	138,69
232,819	139,54
233,195	139,33
233,571	139,84
233,947	142,3
234,323	144,03
234,699	145,38
235,075	146,78
235,451	147,89
235,827	150,62
236,203	153,27
236,579	155,53
236,955	160,19
237,331	168,94
237,707	179,32
238,083	191,35
238,459	205,47
238,834	230,41
239,21	270,51
239,586	326,27
239,961	390,08
240,337	460,32
240,713	523,07
241,088	594,44
241,464	683,9
241,839	801,89
242,215	1066,52
242,59	2495,58
242,965	-1528,54
243,341	-434,92
243,716	-234,9
244,091	-167,42
244,467	-138,03
244,842	-121,94
245,217	-111,29
245,592	-106,48
245,967	-106,93
246,343	-105,46
246,718	-104,2
247,093	-106,72
247,468	-109,49
247,843	-109,29
248,218	-104,94
248,593	-98,05
248,967	-90,8
249,342	-86,72
249,717	-84,35
250,092	-83,07
250,467	-84,32
250,841	-89,97
251,216	-102,87
251,591	-124,34
251,965	-149,29
252,34	-169,39
252,714	-189,45
253,089	-202,81
253,463	-212,04
253,838	-209,72
254,212	-203,67
254,587	-192,99
254,961	-171,27
255,335	-145,99
255,71	-120,92
256,084	-94,64
256,458	-75,07
256,832	-63,12
257,206	-56,75
257,581	-53,7
257,955	-51,6
258,329	-49,58
258,703	-47,54
259,077	-45,83
259,451	-44,01
259,825	-42,96
260,199	-42,52
260,572	-41,86
260,946	-41,89
261,32	-41,37
261,694	-40,47
262,068	-39,99
262,441	-39,61
262,815	-39,54
263,189	-39,26
263,562	-39,59
263,936	-41,91
264,309	-45,88
264,683	-50,47
265,056	-53,08
265,43	-54,3
265,803	-55,02
266,176	-55,03
266,55	-54,64
266,923	-53,71
267,296	-52,69
267,67	-50,85
268,043	-48,79
268,416	-45,82
268,789	-42,75
269,162	-40,3
269,535	-38,04
269,908	-36,43
270,281	-35,43
270,654	-35,31
271,027	-36,04
271,4	-36,76
271,773	-36,9
272,146	-36,93
272,519	-36,91
272,891	-36,81
273,264	-36,83
273,637	-36,59
274,01	-36,32
274,382	-36,93
274,755	-37,38
275,127	-37,63
275,5	-37,92
275,872	-38,17
276,245	-38,85
276,617	-40,1
276,99	-40,98
277,362	-42,21
277,734	-42,93
278,107	-42,7
278,479	-42,13
278,851	-41,12
279,223	-40,17
279,596	-39,27
279,968	-38,63
280,34	-37,75
280,712	-36,96
281,084	-35,38
281,456	-33,56
281,828	-31,79
282,2	-29,41
282,572	-27,5
282,944	-26,06
283,315	-25,13
283,687	-24,45
284,059	-24,11
284,431	-23,68
284,802	-22,93
285,174	-22,21
285,546	-21,61
285,917	-21,03
286,289	-20,37
286,66	-19,96
287,032	-19,46
287,403	-19,12
287,775	-19,07
288,146	-19,39
288,518	-19,59
288,889	-19,59
289,26	-19,69
289,632	-20,23
290,003	-20,93
290,374	-21,32
290,745	-21,58
291,116	-21,71
291,487	-21,77
291,858	-21,54
292,229	-21,21
292,6	-21,01
292,971	-20,45
293,342	-19,75
293,713	-19,02
294,084	-18,5
294,455	-17,83
294,826	-17,35
295,196	-17,25
295,567	-17,36
295,938	-17,01
296,308	-16,7
296,679	-16,46
297,05	-16,18
297,42	-15,62
297,791	-15,09
298,161	-14,88
298,532	-14,54
298,902	-14,12
299,272	-13,86
299,643	-13,68
300,013	-13,31
300,383	-13,18
300,754	-13,31
301,124	-13,56
301,494	-13,83
301,864	-14,07
302,234	-14,42
302,604	-14,76
302,974	-14,86
303,344	-14,59
303,714	-14,28
304,084	-13,87
304,454	-13,75
304,824	-13,81
305,194	-14,03
305,563	-14,13
305,933	-14,08
306,303	-13,97
306,673	-13,76
307,042	-13,28
307,412	-12,64
307,781	-12,09
308,151	-11,71
308,521	-11,4
308,89	-11,19
309,259	-11,33
309,629	-11,4
309,998	-11,34
310,368	-11,31
310,737	-11,19
311,106	-11,07
311,475	-11,04
311,845	-11,14
312,214	-11,03
312,583	-10,83
312,952	-10,66
313,321	-10,45
313,69	-10,12
314,059	-10
314,428	-10,08
314,797	-10,37
315,166	-10,92
315,535	-11,52
315,904	-11,92
316,272	-12,19
316,641	-12,25
317,01	-11,86
317,379	-11,62
317,747	-11,42
318,116	-11,02
318,484	-10,83
318,853	-10,71
319,221	-10,6
319,59	-10,61
319,958	-10,65
320,327	-10,67
320,695	-10,66
321,063	-10,57
321,432	-10,52
321,8	-10,3
322,168	-10,09
322,536	-9,92
322,905	-9,42
323,273	-9,01
323,641	-8,72
324,009	-8,39
324,377	-8,18
324,745	-8,08
325,113	-7,83
325,481	-7,51
325,849	-7,34
326,216	-7,13
326,584	-6,94
326,952	-6,79
327,32	-6,49
327,687	-6,25
328,055	-5,98
328,423	-5,76
328,79	-5,73
329,158	-5,77
329,525	-5,89
329,893	-5,84
330,26	-5,61
330,628	-5,59
330,995	-5,52
331,362	-5,49
331,73	-5,55
332,097	-5,61
332,464	-5,61
332,831	-5,62
333,199	-5,72
333,566	-5,71
333,933	-5,59
334,3	-5,42
334,667	-5,31
335,034	-5,27
335,401	-5,33
335,768	-5,43
336,135	-5,51
336,502	-5,49
336,868	-5,38
337,235	-5,24
337,602	-5,18
337,969	-5,13
338,335	-5,04
338,702	-4,86
339,069	-4,72
339,435	-4,65
339,802	-4,51
340,168	-4,41
340,535	-4,23
340,901	-4,16
341,267	-4,15
341,634	-4,15
342	-4,19
342,366	-4,14
342,733	-4,1
343,099	-3,92
343,465	-3,74
343,831	-3,59
344,197	-3,47
344,563	-3,42
344,929	-3,37
345,295	-3,25
345,661	-3,11
346,027	-3,03
346,393	-3,03
346,759	-2,94
347,125	-2,8
347,491	-2,68
347,856	-2,67
348,222	-2,73
348,588	-2,6
348,953	-2,49
349,319	-2,46
349,684	-2,35
350,05	-2,32
350,415	-2,22
350,781	-2,14
351,146	-2,04
351,512	-1,92
351,877	-1,85
352,242	-1,76
352,608	-1,61
352,973	-1,5
353,338	-1,41
353,703	-1,28
354,068	-1,24
354,433	-1,18
354,798	-1,14
355,164	-1,1
355,528	-1
355,893	-0,92
356,258	-0,88
356,623	-0,74
356,988	-0,56
357,353	-0,47
357,718	-0,36
358,082	-0,3
358,447	-0,25
358,812	-0,14
359,176	-0,06
359,541	0,03
359,905	0,09
360,27	0,12
360,634	0,17
360,999	0,22
361,363	0,27
361,728	0,35
362,092	0,41
362,456	0,47
362,821	0,55
363,185	0,64
363,549	0,75
363,913	0,78
364,277	0,79
364,641	0,74
365,005	0,8
365,369	0,85
365,733	0,95
366,097	1,02
366,461	1,06
366,825	1,16
367,189	1,23
367,553	1,32
367,916	1,42
368,28	1,48
368,644	1,49
369,007	1,55
369,371	1,62
369,734	1,7
370,098	1,76
370,461	1,8
370,825	1,83
371,188	1,86
371,552	1,95
371,915	2,02
372,278	2,16
372,642	2,27
373,005	2,38
373,368	2,48
373,731	2,57
374,094	2,66
374,457	2,72
374,82	2,83
375,183	2,89
375,546	2,96
375,909	3,05
376,272	3,17
376,635	3,26
376,998	3,33
377,361	3,38
377,723	3,45
378,086	3,51
378,449	3,58
378,811	3,64
379,174	3,73
379,537	3,82
379,899	3,86
380,262	3,87
380,624	3,88
380,987	3,92
381,349	3,98
381,711	4,04
382,074	4,11
382,436	4,21
382,798	4,32
383,16	4,35
383,522	4,38
383,884	4,42
384,247	4,43
384,609	4,48
384,971	4,51
385,333	4,52
385,695	4,55
386,056	4,57
386,418	4,56
386,78	4,54
387,142	4,54
387,504	4,54
387,865	4,59
388,227	4,61
388,589	4,63
388,95	4,62
389,312	4,59
389,673	4,58
390,035	4,54
390,396	4,54
390,758	4,56
391,119	4,56
391,48	4,56
391,842	4,59
392,203	4,6
392,564	4,61
392,925	4,68
393,286	4,73
393,648	4,79
394,009	4,85
394,37	4,88
394,731	4,92
395,092	4,95
395,452	4,98
395,813	5,01
396,174	5,04
396,535	5,06
396,896	5,09
397,257	5,14
397,617	5,19
397,978	5,21
398,338	5,23
398,699	5,28
399,06	5,33
399,42	5,34
399,781	5,36
400,141	5,4
400,501	5,39
400,862	5,39
401,222	5,39
401,582	5,38
401,943	5,41
402,303	5,41
402,663	5,43
403,023	5,44
403,383	5,48
403,743	5,48
404,103	5,52
404,463	5,56
404,823	5,62
405,183	5,62
405,543	5,64
405,903	5,65
406,262	5,65
406,622	5,63
406,982	5,65
407,342	5,68
407,701	5,69
408,061	5,7
408,42	5,74
408,78	5,77
409,139	5,79
409,499	5,81
409,858	5,82
410,217	5,87
410,577	5,87
410,936	5,84
411,295	5,82
411,655	5,79
412,014	5,74
412,373	5,67
412,732	5,63
413,091	5,58
413,45	5,53
413,809	5,49
414,168	5,45
414,527	5,39
414,886	5,32
415,245	5,26
415,603	5,23
415,962	5,18
416,321	5,14
416,679	5,1
417,038	5,05
417,397	5
417,755	4,93
418,114	4,9
418,472	4,88
418,831	4,88
419,189	4,88
419,547	4,87
419,906	4,86
420,264	4,84
420,622	4,83
420,981	4,83
421,339	4,84
421,697	4,84
422,055	4,86
422,413	4,88
422,771	4,91
423,129	4,93
423,487	4,95
423,845	4,97
424,203	5
424,56	5,04
424,918	5,06
425,276	5,11
425,634	5,15
425,991	5,18
426,349	5,22
426,707	5,26
427,064	5,3
427,422	5,32
427,779	5,37
428,137	5,42
428,494	5,47
428,851	5,48
429,209	5,48
429,566	5,48
429,923	5,49
430,28	5,48
430,637	5,48
430,995	5,47
431,352	5,47
431,709	5,47
432,066	5,48
432,423	5,51
432,78	5,5
433,137	5,5
433,493	5,49
433,85	5,49
434,207	5,45
434,564	5,43
434,92	5,43
435,277	5,42
435,634	5,4
435,99	5,38
436,347	5,38
436,703	5,41
437,06	5,39
437,416	5,4
437,773	5,39
438,129	5,37
438,485	5,39
438,841	5,38
439,198	5,38
439,554	5,36
439,91	5,37
440,266	5,39
440,622	5,4
440,978	5,39
441,334	5,35
441,69	5,34
442,046	5,32
442,402	5,31
442,758	5,32
443,113	5,32
443,469	5,32
443,825	5,31
444,181	5,3
444,536	5,33
444,892	5,34
445,247	5,36
445,603	5,39
445,958	5,4
446,314	5,4
446,669	5,41
447,025	5,41
447,38	5,4
447,735	5,4
448,09	5,4
448,446	5,41
448,801	5,43
449,156	5,47
449,511	5,51
449,866	5,57
450,221	5,6
450,576	5,63
450,931	5,69
451,286	5,72
451,641	5,77
451,995	5,8
452,35	5,81
452,705	5,83
453,06	5,83
453,414	5,84
453,769	5,84
454,123	5,85
454,478	5,87
454,832	5,9
455,187	5,87
455,541	5,87
455,896	5,86
456,25	5,84
456,604	5,82
456,958	5,79
457,313	5,77
457,667	5,74
458,021	5,75
458,375	5,76
458,729	5,77
459,083	5,78
459,437	5,78
459,791	5,79
460,145	5,8
460,499	5,8
460,852	5,79
461,206	5,79
461,56	5,8
461,914	5,8
462,267	5,79
462,621	5,82
462,974	5,84
463,328	5,86
463,681	5,89
464,035	5,93
464,388	5,96
464,742	5,98
465,095	6,01
465,448	6,02
465,801	6,01
466,155	6,01
466,508	5,99
466,861	5,97
467,214	5,97
467,567	5,97
467,92	5,98
468,273	6
468,626	6,02
468,979	6,02
469,332	6,03
469,684	6,04
470,037	6,04
470,39	6,04
470,743	6,05
471,095	6,08
471,448	6,09
471,8	6,12
472,153	6,14
472,505	6,14
472,858	6,15
473,21	6,16
473,562	6,16
473,915	6,18
474,267	6,2
474,619	6,2
474,971	6,2
475,324	6,2
475,676	6,2
476,028	6,2
476,38	6,2
476,732	6,2
477,084	6,2
477,436	6,19
477,787	6,19
478,139	6,18
478,491	6,17
478,843	6,16
479,195	6,14
479,546	6,08
479,898	6,07
480,249	6,03
480,601	5,99
480,952	5,96
481,304	5,95
481,655	5,94
482,007	5,93
482,358	5,93
482,709	5,93
483,061	5,91
483,412	5,91
483,763	5,9
484,114	5,91
484,465	5,91
484,816	5,9
485,167	5,9
485,518	5,91
485,869	5,91
486,22	5,92
486,571	5,93
486,922	5,95
487,272	5,95
487,623	5,98
487,974	6
488,324	6,02
488,675	6,05
489,025	6,06
489,376	6,08
489,726	6,08
490,077	6,1
490,427	6,12
490,778	6,14
491,128	6,17
491,478	6,19
491,828	6,23
492,179	6,27
492,529	6,3
492,879	6,32
493,229	6,34
493,579	6,36
493,929	6,38
494,279	6,41
494,629	6,44
494,979	6,47
495,328	6,51
495,678	6,56
496,028	6,59
496,378	6,65
496,727	6,68
497,077	6,72
497,426	6,74
497,776	6,75
498,125	6,75
498,475	6,76
498,824	6,77
499,174	6,78
499,523	6,79
499,872	6,8
500,221	6,83
500,571	6,85
500,92	6,86
501,269	6,87
501,618	6,89
501,967	6,91
502,316	6,9
502,665	6,92
503,014	6,92
503,363	6,93
503,711	6,95
504,06	6,96
504,409	6,96
504,758	6,96
505,106	6,97
505,455	7
505,803	7
506,152	7
506,5	7,01
506,849	7,02
507,197	7,03
507,546	7,02
507,894	7,04
508,242	7,04
508,59	7,04
508,939	7,05
509,287	7,05
509,635	7,06
509,983	7,08
510,331	7,1
510,679	7,12
511,027	7,13
511,375	7,13
511,723	7,15
512,07	7,18
512,418	7,2
512,766	7,21
513,114	7,24
513,461	7,26
513,809	7,26
514,156	7,27
514,504	7,27
514,851	7,27
515,199	7,28
515,546	7,29
515,893	7,3
516,241	7,32
516,588	7,33
516,935	7,36
517,282	7,39
517,63	7,42
517,977	7,43
518,324	7,45
518,671	7,47
519,018	7,48
519,365	7,48
519,711	7,49
520,058	7,5
520,405	7,53
520,752	7,56
521,099	7,58
521,445	7,6
521,792	7,61
522,138	7,64
522,485	7,65
522,832	7,7
523,178	7,71
523,524	7,72
523,871	7,74
524,217	7,75
524,563	7,72
524,91	7,7
525,256	7,68
525,602	7,69
525,948	7,7
526,294	7,7
526,64	7,7
526,986	7,7
527,332	7,7
527,678	7,71
528,024	7,72
528,37	7,75
528,716	7,75
529,061	7,77
529,407	7,79
529,753	7,79
530,098	7,8
530,444	7,81
530,789	7,83
531,135	7,83
531,48	7,83
531,826	7,86
532,171	7,9
532,516	7,94
532,862	7,96
533,207	7,99
533,552	8,03
533,897	8,08
534,242	8,11
534,587	8,13
534,932	8,16
535,277	8,19
535,622	8,19
535,967	8,23
536,312	8,25
536,657	8,28
537,001	8,33
537,346	8,37
537,691	8,42
538,035	8,44
538,38	8,46
538,724	8,49
539,069	8,5
539,413	8,52
539,758	8,53
540,102	8,56
540,446	8,58
540,791	8,59
541,135	8,6
541,479	8,61
541,823	8,64
542,167	8,63
542,512	8,66
542,856	8,65
543,2	8,67
543,543	8,68
543,887	8,68
544,231	8,7
544,575	8,71
544,919	8,72
545,262	8,76
545,606	8,8
545,95	8,83
546,293	8,86
546,637	8,88
546,98	8,91
547,324	8,93
547,667	8,97
548,011	9
548,354	9,04
548,697	9,05
549,04	9,06
549,384	9,07
549,727	9,06
550,07	9,11
550,413	9,12
550,756	9,15
551,099	9,19
551,442	9,21
551,785	9,25
552,128	9,29
552,47	9,31
552,813	9,33
553,156	9,35
553,499	9,36
553,841	9,38
554,184	9,39
554,526	9,39
554,869	9,37
555,211	9,37
555,554	9,37
555,896	9,39
556,238	9,37
556,581	9,39
556,923	9,41
557,265	9,4
557,607	9,4
557,949	9,41
558,291	9,41
558,633	9,41
558,975	9,41
559,317	9,38
559,659	9,38
560,001	9,37
560,343	9,38
560,685	9,38
561,026	9,37
561,368	9,36
561,71	9,37
562,051	9,39
562,393	9,42
562,734	9,41
563,076	9,45
563,417	9,45
563,759	9,47
564,1	9,5
564,441	9,52
564,782	9,52
565,124	9,53
565,465	9,56
565,806	9,55
566,147	9,57
566,488	9,57
566,829	9,58
567,17	9,61
567,511	9,61
567,851	9,64
568,192	9,65
568,533	9,66
568,874	9,67
569,214	9,71
569,555	9,68
569,895	9,68
570,236	9,66
570,576	9,67
570,917	9,68
571,257	9,66
571,598	9,68
571,938	9,72
572,278	9,73
572,618	9,74
572,959	9,77
573,299	9,79
573,639	9,79
573,979	9,8
574,319	9,8
574,659	9,81
574,999	9,81
575,339	9,83
575,678	9,86
576,018	9,87
576,358	9,86
576,698	9,88
577,037	9,91
577,377	9,93
577,716	9,96
578,056	9,97
578,395	9,96
578,735	9,96
579,074	9,95
579,413	9,94
579,753	9,94
580,092	9,91
580,431	9,91
580,77	9,94
581,109	9,95
581,448	9,95
581,787	9,96
582,126	9,99
582,465	10,02
582,804	10,02
583,143	10,06
583,482	10,06
583,82	10,09
584,159	10,11
584,498	10,14
584,836	10,16
585,175	10,17
585,514	10,19
585,852	10,21
586,19	10,24
586,529	10,28
586,867	10,3
587,205	10,35
587,544	10,4
587,882	10,43
588,22	10,46
588,558	10,51
588,896	10,52
589,234	10,54
589,572	10,52
589,91	10,55
590,248	10,54
590,586	10,57
590,924	10,58
591,262	10,57
591,599	10,58
591,937	10,61
592,275	10,64
592,612	10,69
592,95	10,75
593,287	10,81
593,625	10,85
593,962	10,91
594,299	10,95
594,637	11,02
594,974	11,05
595,311	11,09
595,648	11,12
595,985	11,17
596,322	11,19
596,659	11,25
596,996	11,27
597,333	11,3
597,67	11,33
598,007	11,37
598,344	11,41
598,681	11,45
599,017	11,49
599,354	11,51
599,691	11,53
600,027	11,58
600,364	11,59
600,7	11,63
601,037	11,69
601,373	11,76
601,71	11,77
602,046	11,82
602,382	11,84
602,718	11,89
603,054	11,91
603,391	11,94
603,727	11,93
604,063	11,98
604,399	12,02
604,735	12,05
605,071	12,08
605,406	12,11
605,742	12,16
606,078	12,19
606,414	12,23
606,749	12,28
607,085	12,31
607,421	12,34
607,756	12,37
608,092	12,36
608,427	12,35
608,762	12,38
609,098	12,38
609,433	12,36
609,768	12,36
610,104	12,37
610,439	12,38
610,774	12,42
611,109	12,43
611,444	12,45
611,779	12,44
612,114	12,44
612,449	12,46
612,784	12,45
613,118	12,45
613,453	12,46
613,788	12,43
614,123	12,4
614,457	12,38
614,792	12,35
615,126	12,38
615,461	12,36
615,795	12,37
616,13	12,39
616,464	12,45
616,798	12,44
617,132	12,46
617,467	12,47
617,801	12,48
618,135	12,49
618,469	12,53
618,803	12,57
619,137	12,65
619,471	12,66
619,805	12,67
620,139	12,69
620,472	12,74
620,806	12,79
621,14	12,82
621,473	12,85
621,807	12,91
622,141	12,92
622,474	12,97
622,808	12,97
623,141	13,01
623,474	13,04
623,808	13,12
624,141	13,18
624,474	13,25
624,807	13,3
625,141	13,36
625,474	13,4
625,807	13,45
626,14	13,45
626,473	13,53
626,806	13,56
627,138	13,62
627,471	13,62
627,804	13,65
628,137	13,71
628,469	13,71
628,802	13,72
629,135	13,74
629,467	13,77
629,8	13,82
630,132	13,86
630,465	13,9
630,797	13,93
631,129	13,95
631,461	13,99
631,794	14
632,126	14,02
632,458	14,04
632,79	14,09
633,122	14,12
633,454	14,12
633,786	14,17
634,118	14,15
634,45	14,17
634,781	14,19
635,113	14,2
635,445	14,26
635,777	14,34
636,108	14,38
636,44	14,4
636,771	14,43
637,103	14,43
637,434	14,45
637,765	14,46
638,097	14,48
638,428	14,48
638,759	14,49
639,09	14,51
639,422	14,54
639,753	14,55
640,084	14,55
640,415	14,57
640,746	14,57
641,077	14,64
641,407	14,68
641,738	14,73
642,069	14,74
642,4	14,81
642,73	14,79
643,061	14,83
643,392	14,85
643,722	14,91
644,053	14,93
644,383	14,93
644,713	14,95
645,044	14,99
645,374	15,05
645,704	15,09
646,034	15,08
646,365	15,06
646,695	15,06
647,025	15,1
647,355	15,12
647,685	15,11
648,015	15,1
648,344	15,11
648,674	15,16
649,004	15,17
649,334	15,17
649,663	15,24
649,993	15,28
650,323	15,33
650,652	15,29
650,982	15,34
651,311	15,37
651,64	15,41
651,97	15,41
652,299	15,41
652,628	15,46
652,958	15,49
653,287	15,58
653,616	15,63
653,945	15,66
654,274	15,72
654,603	15,74
654,932	15,8
655,261	15,87
655,589	15,9
655,918	15,97
656,247	16,02
656,576	16,08
656,904	16,14
