Data from zc74019_2_Reflection_00001.txt Node
Date: Thu Mar 12 14:41:25 ART 2020
User: Ana
Spectrometer: USB2E3644
Trigger mode: 4
Integration Time (sec): 5,000000E-2
Scans to average: 10
Electric dark correction enabled: true
Nonlinearity correction enabled: false
Boxcar width: 10
XAxis mode: Wavelengths
Number of Pixels in Spectrum: 2048
>>>>>Begin Spectral Data<<<<<
178,315	94,01
178,696	89,64
179,076	75,76
179,457	60,37
179,838	51,63
180,218	48,15
180,599	-78,89
180,979	72,41
181,36	61,11
181,74	165,08
182,121	192,95
182,501	179,56
182,881	183,79
183,262	165,21
183,642	153,16
184,022	151,05
184,402	156,34
184,783	152,13
185,163	141,3
185,543	136,65
185,923	135,8
186,303	138,97
186,683	141,38
187,063	143,49
187,443	146,44
187,823	154,42
188,203	163,14
188,583	168,04
188,963	168,57
189,343	163,84
189,723	157,23
190,102	152,65
190,482	146,97
190,862	144,35
191,242	144,18
191,621	144,19
192,001	140,88
192,38	138,98
192,76	137,87
193,14	136,54
193,519	135,2
193,898	135,88
194,278	135,12
194,657	132,27
195,037	129,36
195,416	125,84
195,795	124,74
196,175	124,71
196,554	124,54
196,933	124,78
197,312	126,21
197,692	128,81
198,071	129,85
198,45	129,31
198,829	129,73
199,208	130,3
199,587	130,04
199,966	130,38
200,345	128,63
200,724	129,17
201,103	130,59
201,482	132,35
201,86	130,75
202,239	130,27
202,618	130,32
202,997	129,98
203,375	130,05
203,754	129,84
204,133	128,54
204,511	125,79
204,89	124,48
205,269	123,81
205,647	122,06
206,026	122,97
206,404	126,65
206,782	127,82
207,161	128,94
207,539	129,49
207,918	129,84
208,296	131
208,674	130,5
209,052	130,06
209,431	132,59
209,809	137,35
210,187	139,65
210,565	140,55
210,943	140,47
211,321	139,91
211,699	137,77
212,077	135,96
212,455	135,59
212,833	137,9
213,211	139,24
213,589	141,95
213,967	141,61
214,345	137,92
214,722	134,02
215,1	131,24
215,478	129,03
215,855	128,66
216,233	128,42
216,611	128,1
216,988	127,16
217,366	123,88
217,743	121,05
218,121	118,57
218,498	118,61
218,876	119,59
219,253	120,27
219,631	121,34
220,008	123,36
220,385	126,21
220,762	126,42
221,14	126,57
221,517	123,84
221,894	120,25
222,271	119,04
222,648	120,83
223,025	120,76
223,402	120,19
223,78	118,51
224,157	119,3
224,533	122,44
224,91	129,26
225,287	135,18
225,664	141,36
226,041	149,62
226,418	152,93
226,795	156,01
227,171	163,53
227,548	168,15
227,925	169,53
228,301	172,28
228,678	172,83
229,055	171,78
229,431	175,35
229,808	180,45
230,184	184,84
230,561	192,81
230,937	206,26
231,313	220,4
231,69	226,38
232,066	228,12
232,442	220,65
232,819	212,51
233,195	208,7
233,571	207,11
233,947	202,92
234,323	205,09
234,699	208,07
235,075	209,51
235,451	215,18
235,827	220,6
236,203	228,62
236,579	242,3
236,955	262,74
237,331	287,88
237,707	333,15
238,083	408,91
238,459	533,64
238,834	934,59
239,21	5781,11
239,586	-1327,95
239,961	-764,75
240,337	-544,41
240,713	-468,4
241,088	-426,85
241,464	-397,73
241,839	-364,05
242,215	-303,22
242,59	-239,88
242,965	-167,85
243,341	-116,44
243,716	-85,93
244,091	-71,87
244,467	-63,87
244,842	-57,58
245,217	-52,55
245,592	-50,34
245,967	-51,27
246,343	-51,29
246,718	-51,54
247,093	-52,37
247,468	-53,5
247,843	-52,83
248,218	-50,66
248,593	-47,02
248,967	-43,75
249,342	-42
249,717	-40,64
250,092	-40,08
250,467	-40,45
250,841	-43,61
251,216	-49,84
251,591	-58,24
251,965	-65,2
252,34	-70,17
252,714	-77,41
253,089	-82,53
253,463	-84,58
253,838	-81,2
254,212	-78,19
254,587	-74,91
254,961	-68,09
255,335	-60,01
255,71	-51,46
256,084	-41,93
256,458	-35,06
256,832	-30,72
257,206	-28,16
257,581	-26,57
257,955	-25,68
258,329	-24,65
258,703	-23,13
259,077	-21,78
259,451	-20,72
259,825	-20,4
260,199	-20,71
260,572	-20,58
260,946	-20,74
261,32	-20,82
261,694	-20,8
262,068	-20,6
262,441	-20,36
262,815	-20,51
263,189	-20,41
263,562	-20,78
263,936	-22,5
264,309	-24,81
264,683	-26,99
265,056	-27,91
265,43	-28,41
265,803	-28,23
266,176	-27,94
266,55	-27,54
266,923	-27,2
267,296	-26,54
267,67	-25,36
268,043	-24,26
268,416	-22,54
268,789	-20,68
269,162	-19,08
269,535	-17,67
269,908	-16,44
270,281	-15,64
270,654	-15,13
271,027	-15,29
271,4	-15,34
271,773	-15,06
272,146	-14,79
272,519	-14,58
272,891	-14,32
273,264	-14,26
273,637	-14,34
274,01	-14,25
274,382	-14,52
274,755	-14,58
275,127	-14,61
275,5	-14,73
275,872	-14,65
276,245	-14,91
276,617	-15,6
276,99	-16
277,362	-16,58
277,734	-17,18
278,107	-17,55
278,479	-17,59
278,851	-17,15
279,223	-16,83
279,596	-16,91
279,968	-17,05
280,34	-17,01
280,712	-16,97
281,084	-16,3
281,456	-15,32
281,828	-14,46
282,2	-13,52
282,572	-12,71
282,944	-12,06
283,315	-11,8
283,687	-11,46
284,059	-11,14
284,431	-10,87
284,802	-10,67
285,174	-10,41
285,546	-10,15
285,917	-9,67
286,289	-9,44
286,66	-9,38
287,032	-9,1
287,403	-8,82
287,775	-8,7
288,146	-8,71
288,518	-8,75
288,889	-8,66
289,26	-8,76
289,632	-9,17
290,003	-9,59
290,374	-9,77
290,745	-9,87
291,116	-9,93
291,487	-9,92
291,858	-9,91
292,229	-9,71
292,6	-9,48
292,971	-9,1
293,342	-8,82
293,713	-8,47
294,084	-8,05
294,455	-7,52
294,826	-7,37
295,196	-7,34
295,567	-7,37
295,938	-7,17
296,308	-6,88
296,679	-6,79
297,05	-6,56
297,42	-6,15
297,791	-5,56
298,161	-5,4
298,532	-5,24
298,902	-4,93
299,272	-4,79
299,643	-4,68
300,013	-4,4
300,383	-4,18
300,754	-4,09
301,124	-4,02
301,494	-4,11
301,864	-4,18
302,234	-4,43
302,604	-4,38
302,974	-4,16
303,344	-3,98
303,714	-3,94
304,084	-3,84
304,454	-3,81
304,824	-3,97
305,194	-4,19
305,563	-4,48
305,933	-4,5
306,303	-4,35
306,673	-4,17
307,042	-4,03
307,412	-3,86
307,781	-3,68
308,151	-3,55
308,521	-3,47
308,89	-3,38
309,259	-3,37
309,629	-3,39
309,998	-3,35
310,368	-3,38
310,737	-3,37
311,106	-3,21
311,475	-2,99
311,845	-3
312,214	-2,96
312,583	-2,9
312,952	-2,89
313,321	-2,76
313,69	-2,5
314,059	-2,43
314,428	-2,49
314,797	-2,51
315,166	-2,71
315,535	-3,03
315,904	-3,22
316,272	-3,36
316,641	-3,48
317,01	-3,52
317,379	-3,6
317,747	-3,47
318,116	-3,23
318,484	-3,1
318,853	-3,1
319,221	-3,12
319,59	-3,07
319,958	-2,98
320,327	-2,92
320,695	-2,75
321,063	-2,53
321,432	-2,36
321,8	-2,26
322,168	-2,21
322,536	-2,27
322,905	-1,88
323,273	-1,49
323,641	-1,27
324,009	-1,04
324,377	-0,97
324,745	-0,83
325,113	-0,68
325,481	-0,5
325,849	-0,35
326,216	-0,24
326,584	-0,16
326,952	-0,09
327,32	0,12
327,687	0,22
328,055	0,42
328,423	0,54
328,79	0,48
329,158	0,34
329,525	0,35
329,893	0,46
330,26	0,85
330,628	0,93
330,995	1,05
331,362	1,07
331,73	1,07
332,097	1,18
332,464	1,21
332,831	1,34
333,199	1,3
333,566	1,25
333,933	1,26
334,3	1,39
334,667	1,46
335,034	1,46
335,401	1,55
335,768	1,61
336,135	1,68
336,502	1,71
336,868	1,75
337,235	1,8
337,602	1,82
337,969	1,74
338,335	1,67
338,702	1,64
339,069	1,67
339,435	1,7
339,802	1,76
340,168	1,81
340,535	1,87
340,901	1,88
341,267	1,85
341,634	1,85
342	1,75
342,366	1,79
342,733	1,8
343,099	1,84
343,465	1,85
343,831	1,88
344,197	1,94
344,563	1,95
344,929	1,96
345,295	2,04
345,661	2,15
346,027	2,28
346,393	2,29
346,759	2,34
347,125	2,35
347,491	2,42
347,856	2,5
348,222	2,48
348,588	2,57
348,953	2,61
349,319	2,61
349,684	2,76
350,05	2,8
350,415	2,9
350,781	2,9
351,146	2,92
351,512	2,94
351,877	2,92
352,242	2,94
352,608	3,02
352,973	3,03
353,338	3
353,703	2,98
354,068	3
354,433	3,07
354,798	3,14
355,164	3,14
355,528	3,14
355,893	3,16
356,258	3,19
356,623	3,32
356,988	3,49
357,353	3,48
357,718	3,44
358,082	3,41
358,447	3,46
358,812	3,56
359,176	3,68
359,541	3,84
359,905	3,98
360,27	4,03
360,634	4,11
360,999	4,24
361,363	4,36
361,728	4,42
362,092	4,44
362,456	4,47
362,821	4,58
363,185	4,7
363,549	4,79
363,913	4,86
364,277	4,88
364,641	4,87
365,005	4,99
365,369	5,12
365,733	5,25
366,097	5,37
366,461	5,4
366,825	5,44
367,189	5,47
367,553	5,52
367,916	5,61
368,28	5,67
368,644	5,74
369,007	5,82
369,371	5,93
369,734	6,05
370,098	6,12
370,461	6,17
370,825	6,22
371,188	6,28
371,552	6,35
371,915	6,42
372,278	6,5
372,642	6,58
373,005	6,68
373,368	6,79
373,731	6,82
374,094	6,88
374,457	6,95
374,82	7,02
375,183	7,06
375,546	7,1
375,909	7,18
376,272	7,25
376,635	7,29
376,998	7,32
377,361	7,39
377,723	7,45
378,086	7,47
378,449	7,49
378,811	7,52
379,174	7,56
379,537	7,62
379,899	7,67
380,262	7,68
380,624	7,72
380,987	7,77
381,349	7,84
381,711	7,94
382,074	8,01
382,436	8,09
382,798	8,21
383,16	8,22
383,522	8,22
383,884	8,24
384,247	8,3
384,609	8,37
384,971	8,4
385,333	8,44
385,695	8,52
386,056	8,57
386,418	8,61
386,78	8,62
387,142	8,63
387,504	8,66
387,865	8,71
388,227	8,72
388,589	8,74
388,95	8,74
389,312	8,72
389,673	8,72
390,035	8,73
390,396	8,74
390,758	8,8
391,119	8,84
391,48	8,85
391,842	8,85
392,203	8,85
392,564	8,87
392,925	8,94
393,286	8,96
393,648	9,01
394,009	9,05
394,37	9,1
394,731	9,16
395,092	9,21
395,452	9,22
395,813	9,24
396,174	9,27
396,535	9,32
396,896	9,35
397,257	9,41
397,617	9,46
397,978	9,49
398,338	9,5
398,699	9,59
399,06	9,71
399,42	9,73
399,781	9,77
400,141	9,81
400,501	9,82
400,862	9,85
401,222	9,89
401,582	9,96
401,943	10,03
402,303	10,08
402,663	10,13
403,023	10,21
403,383	10,32
403,743	10,38
404,103	10,48
404,463	10,59
404,823	10,67
405,183	10,76
405,543	10,85
405,903	10,92
406,262	10,98
406,622	10,99
406,982	11,1
407,342	11,18
407,701	11,27
408,061	11,37
408,42	11,48
408,78	11,58
409,139	11,65
409,499	11,74
409,858	11,85
410,217	11,94
410,577	12,03
410,936	12,06
411,295	12,13
411,655	12,17
412,014	12,18
412,373	12,18
412,732	12,18
413,091	12,17
413,45	12,18
413,809	12,17
414,168	12,16
414,527	12,12
414,886	12,09
415,245	12,07
415,603	12,03
415,962	11,97
416,321	11,92
416,679	11,87
417,038	11,78
417,397	11,7
417,755	11,64
418,114	11,58
418,472	11,56
418,831	11,54
419,189	11,51
419,547	11,49
419,906	11,47
420,264	11,43
420,622	11,41
420,981	11,39
421,339	11,37
421,697	11,37
422,055	11,4
422,413	11,42
422,771	11,45
423,129	11,49
423,487	11,55
423,845	11,6
424,203	11,67
424,56	11,75
424,918	11,82
425,276	11,89
425,634	11,99
425,991	12,04
426,349	12,09
426,707	12,17
427,064	12,25
427,422	12,35
427,779	12,46
428,137	12,57
428,494	12,71
428,851	12,82
429,209	12,87
429,566	12,87
429,923	12,87
430,28	12,86
430,637	12,84
430,995	12,82
431,352	12,81
431,709	12,78
432,066	12,8
432,423	12,82
432,78	12,84
433,137	12,83
433,493	12,83
433,85	12,87
434,207	12,84
434,564	12,82
434,92	12,8
435,277	12,79
435,634	12,76
435,99	12,73
436,347	12,69
436,703	12,72
437,06	12,72
437,416	12,73
437,773	12,74
438,129	12,72
438,485	12,73
438,841	12,73
439,198	12,74
439,554	12,75
439,91	12,73
440,266	12,73
440,622	12,73
440,978	12,69
441,334	12,63
441,69	12,59
442,046	12,55
442,402	12,49
442,758	12,45
443,113	12,43
443,469	12,4
443,825	12,4
444,181	12,39
444,536	12,43
444,892	12,42
445,247	12,44
445,603	12,46
445,958	12,47
446,314	12,47
446,669	12,47
447,025	12,47
447,38	12,48
447,735	12,48
448,09	12,47
448,446	12,5
448,801	12,53
449,156	12,56
449,511	12,61
449,866	12,68
450,221	12,73
450,576	12,81
450,931	12,87
451,286	12,92
451,641	12,95
451,995	12,96
452,35	13,04
452,705	13,03
453,06	13,01
453,414	13,02
453,769	13,03
454,123	13,02
454,478	13,01
454,832	12,99
455,187	12,93
455,541	12,89
455,896	12,82
456,25	12,78
456,604	12,71
456,958	12,67
457,313	12,64
457,667	12,64
458,021	12,63
458,375	12,64
458,729	12,66
459,083	12,68
459,437	12,67
459,791	12,65
460,145	12,67
460,499	12,67
460,852	12,66
461,206	12,67
461,56	12,66
461,914	12,66
462,267	12,68
462,621	12,72
462,974	12,75
463,328	12,8
463,681	12,84
464,035	12,91
464,388	12,94
464,742	12,96
465,095	12,99
465,448	13
465,801	13
466,155	12,98
466,508	12,95
466,861	12,94
467,214	12,93
467,567	12,95
467,92	12,97
468,273	12,98
468,626	12,97
468,979	12,97
469,332	12,97
469,684	12,95
470,037	12,96
470,39	12,99
470,743	13,01
471,095	13,04
471,448	13,09
471,8	13,12
472,153	13,16
472,505	13,16
472,858	13,15
473,21	13,14
473,562	13,16
473,915	13,16
474,267	13,17
474,619	13,14
474,971	13,1
475,324	13,08
475,676	13,08
476,028	13,08
476,38	13,1
476,732	13,11
477,084	13,09
477,436	13,07
477,787	13,04
478,139	13,01
478,491	12,98
478,843	12,91
479,195	12,85
479,546	12,74
479,898	12,59
480,249	12,43
480,601	12,31
480,952	12,26
481,304	12,23
481,655	12,24
482,007	12,25
482,358	12,26
482,709	12,24
483,061	12,22
483,412	12,19
483,763	12,14
484,114	12,1
484,465	12,09
484,816	12,07
485,167	12,07
485,518	12,08
485,869	12,09
486,22	12,09
486,571	12,11
486,922	12,14
487,272	12,17
487,623	12,22
487,974	12,25
488,324	12,23
488,675	12,23
489,025	12,24
489,376	12,24
489,726	12,24
490,077	12,26
490,427	12,29
490,778	12,34
491,128	12,4
491,478	12,44
491,828	12,49
492,179	12,54
492,529	12,55
492,879	12,55
493,229	12,54
493,579	12,55
493,929	12,54
494,279	12,56
494,629	12,6
494,979	12,67
495,328	12,74
495,678	12,84
496,028	12,89
496,378	12,91
496,727	12,92
497,077	12,92
497,426	12,93
497,776	12,91
498,125	12,89
498,475	12,9
498,824	12,91
499,174	12,91
499,523	12,91
499,872	12,93
500,221	12,94
500,571	12,96
500,92	12,97
501,269	12,97
501,618	12,95
501,967	12,95
502,316	12,96
502,665	12,97
503,014	12,96
503,363	12,97
503,711	12,96
504,06	12,97
504,409	12,96
504,758	12,92
505,106	12,92
505,455	12,89
505,803	12,89
506,152	12,88
506,5	12,87
506,849	12,88
507,197	12,86
507,546	12,86
507,894	12,87
508,242	12,88
508,59	12,87
508,939	12,87
509,287	12,86
509,635	12,85
509,983	12,86
510,331	12,89
510,679	12,89
511,027	12,91
511,375	12,94
511,723	12,96
512,07	13
512,418	13,01
512,766	13,05
513,114	13,04
513,461	13,05
513,809	13,04
514,156	13,03
514,504	13,03
514,851	13,02
515,199	12,96
515,546	12,94
515,893	12,94
516,241	12,96
516,588	12,96
516,935	12,96
517,282	12,94
517,63	12,95
517,977	12,95
518,324	12,93
518,671	12,91
519,018	12,92
519,365	12,92
519,711	12,93
520,058	12,93
520,405	12,96
520,752	12,96
521,099	12,99
521,445	13
521,792	13
522,138	12,99
522,485	13
522,832	13
523,178	13,01
523,524	13,01
523,871	13
524,217	12,97
524,563	12,89
524,91	12,77
525,256	12,68
525,602	12,62
525,948	12,6
526,294	12,6
526,64	12,61
526,986	12,61
527,332	12,62
527,678	12,62
528,024	12,62
528,37	12,62
528,716	12,6
529,061	12,61
529,407	12,6
529,753	12,59
530,098	12,57
530,444	12,56
530,789	12,56
531,135	12,58
531,48	12,58
531,826	12,63
532,171	12,69
532,516	12,74
532,862	12,79
533,207	12,8
533,552	12,79
533,897	12,79
534,242	12,78
534,587	12,78
534,932	12,79
535,277	12,8
535,622	12,8
535,967	12,83
536,312	12,85
536,657	12,87
537,001	12,92
537,346	12,92
537,691	12,9
538,035	12,84
538,38	12,81
538,724	12,81
539,069	12,8
539,413	12,81
539,758	12,82
540,102	12,84
540,446	12,86
540,791	12,88
541,135	12,89
541,479	12,89
541,823	12,9
542,167	12,87
542,512	12,88
542,856	12,87
543,2	12,85
543,543	12,84
543,887	12,86
544,231	12,88
544,575	12,92
544,919	12,96
545,262	13,05
545,606	13,1
545,95	13,13
546,293	13,15
546,637	13,16
546,98	13,18
547,324	13,21
547,667	13,26
548,011	13,26
548,354	13,26
548,697	13,27
549,04	13,27
549,384	13,29
549,727	13,26
550,07	13,28
550,413	13,3
550,756	13,32
551,099	13,34
551,442	13,33
551,785	13,35
552,128	13,38
552,47	13,38
552,813	13,37
553,156	13,38
553,499	13,38
553,841	13,38
554,184	13,38
554,526	13,36
554,869	13,33
555,211	13,34
555,554	13,34
555,896	13,32
556,238	13,31
556,581	13,29
556,923	13,29
557,265	13,3
557,607	13,28
557,949	13,28
558,291	13,25
558,633	13,26
558,975	13,24
559,317	13,2
559,659	13,17
560,001	13,17
560,343	13,14
560,685	13,09
561,026	13,08
561,368	13,08
561,71	13,05
562,051	13,02
562,393	12,99
562,734	12,94
563,076	12,92
563,417	12,91
563,759	12,93
564,1	12,92
564,441	12,93
564,782	12,95
565,124	12,93
565,465	12,93
565,806	12,93
566,147	12,91
566,488	12,92
566,829	12,92
567,17	12,9
567,511	12,91
567,851	12,93
568,192	12,89
568,533	12,85
568,874	12,84
569,214	12,84
569,555	12,84
569,895	12,85
570,236	12,85
570,576	12,83
570,917	12,82
571,257	12,79
571,598	12,77
571,938	12,74
572,278	12,74
572,618	12,74
572,959	12,75
573,299	12,75
573,639	12,73
573,979	12,7
574,319	12,68
574,659	12,65
574,999	12,65
575,339	12,65
575,678	12,67
576,018	12,67
576,358	12,67
576,698	12,66
577,037	12,65
577,377	12,65
577,716	12,66
578,056	12,65
578,395	12,68
578,735	12,67
579,074	12,68
579,413	12,68
579,753	12,66
580,092	12,61
580,431	12,62
580,77	12,65
581,109	12,66
581,448	12,67
581,787	12,65
582,126	12,65
582,465	12,67
582,804	12,65
583,143	12,66
583,482	12,65
583,82	12,67
584,159	12,67
584,498	12,67
584,836	12,67
585,175	12,66
585,514	12,66
585,852	12,65
586,19	12,63
586,529	12,61
586,867	12,6
587,205	12,59
587,544	12,58
587,882	12,57
588,22	12,58
588,558	12,58
588,896	12,6
589,234	12,57
589,572	12,57
589,91	12,57
590,248	12,57
590,586	12,58
590,924	12,58
591,262	12,59
591,599	12,58
591,937	12,59
592,275	12,61
592,612	12,6
592,95	12,61
593,287	12,62
593,625	12,62
593,962	12,61
594,299	12,62
594,637	12,63
594,974	12,64
595,311	12,65
595,648	12,66
595,985	12,68
596,322	12,7
596,659	12,74
596,996	12,75
597,333	12,72
597,67	12,72
598,007	12,73
598,344	12,74
598,681	12,77
599,017	12,76
599,354	12,75
599,691	12,76
600,027	12,78
600,364	12,78
600,7	12,81
601,037	12,85
601,373	12,85
601,71	12,87
602,046	12,86
602,382	12,87
602,718	12,88
603,054	12,88
603,391	12,88
603,727	12,88
604,063	12,9
604,399	12,92
604,735	12,92
605,071	12,92
605,406	12,9
605,742	12,91
606,078	12,91
606,414	12,91
606,749	12,91
607,085	12,92
607,421	12,94
607,756	12,95
608,092	12,96
608,427	12,97
608,762	12,96
609,098	12,97
609,433	12,98
609,768	12,97
610,104	12,97
610,439	12,99
610,774	12,97
611,109	12,92
611,444	12,93
611,779	12,94
612,114	12,94
612,449	12,97
612,784	12,97
613,118	13
613,453	13
613,788	13,01
614,123	12,99
614,457	12,97
614,792	12,97
615,126	12,96
615,461	12,98
615,795	12,99
616,13	12,99
616,464	12,98
616,798	12,99
617,132	12,99
617,467	12,98
617,801	12,98
618,135	13,03
618,469	13,05
618,803	13,07
619,137	13,11
619,471	13,15
619,805	13,15
620,139	13,13
620,472	13,15
620,806	13,16
621,14	13,18
621,473	13,21
621,807	13,23
622,141	13,21
622,474	13,15
622,808	13,13
623,141	13,09
623,474	13,06
623,808	13,07
624,141	13,09
624,474	13,12
624,807	13,14
625,141	13,13
625,474	13,15
625,807	13,14
626,14	13,13
626,473	13,11
626,806	13,11
627,138	13,13
627,471	13,13
627,804	13,13
628,137	13,15
628,469	13,14
628,802	13,13
629,135	13,18
629,467	13,21
629,8	13,21
630,132	13,23
630,465	13,27
630,797	13,29
631,129	13,29
631,461	13,28
631,794	13,29
632,126	13,28
632,458	13,3
632,79	13,32
633,122	13,32
633,454	13,32
633,786	13,32
634,118	13,31
634,45	13,34
634,781	13,32
635,113	13,33
635,445	13,36
635,777	13,39
636,108	13,38
636,44	13,39
636,771	13,42
637,103	13,43
637,434	13,47
637,765	13,44
638,097	13,44
638,428	13,41
638,759	13,44
639,09	13,43
639,422	13,4
639,753	13,37
640,084	13,36
640,415	13,39
640,746	13,45
641,077	13,48
641,407	13,46
641,738	13,48
642,069	13,48
642,4	13,46
642,73	13,45
643,061	13,45
643,392	13,48
643,722	13,53
644,053	13,56
644,383	13,54
644,713	13,57
645,044	13,57
645,374	13,59
645,704	13,58
646,034	13,61
646,365	13,6
646,695	13,62
647,025	13,66
647,355	13,65
647,685	13,62
648,015	13,62
648,344	13,62
648,674	13,61
649,004	13,58
649,334	13,6
649,663	13,6
