Data from zc74042_4_Reflection_00001.txt Node
Date: Thu Mar 12 14:51:10 ART 2020
User: Ana
Spectrometer: USB2E3644
Trigger mode: 4
Integration Time (sec): 5,000000E-2
Scans to average: 10
Electric dark correction enabled: true
Nonlinearity correction enabled: false
Boxcar width: 10
XAxis mode: Wavelengths
Number of Pixels in Spectrum: 2048
>>>>>Begin Spectral Data<<<<<
178,315	131,09
178,696	119,18
179,076	114,45
179,457	115,75
179,838	100
180,218	83,08
180,599	138,46
180,979	153,57
181,36	111,63
181,74	166,27
182,121	170,83
182,501	145,61
182,881	126,62
183,262	117,02
183,642	114,42
184,022	119,25
184,402	124,6
184,783	127,27
185,163	125,51
185,543	121,25
185,923	118,6
186,303	115,51
186,683	111,05
187,063	108,65
187,443	107,6
187,823	106,12
188,203	106,12
188,583	107,78
188,963	111,09
189,343	114,47
189,723	111,81
190,102	109,18
190,482	113,08
190,862	115,49
191,242	117,16
191,621	117,48
192,001	118,07
192,38	117,57
192,76	117,82
193,14	119,34
193,519	121,63
193,898	123,08
194,278	125,9
194,657	125,91
195,037	125,56
195,416	125,51
195,795	124,44
196,175	123,29
196,554	122,16
196,933	119,36
197,312	117,52
197,692	116,81
198,071	116,77
198,45	114,9
198,829	114,74
199,208	115,68
199,587	116,29
199,966	115,39
200,345	114,6
200,724	113,55
201,103	112,96
201,482	111,62
201,86	111,1
202,239	111,3
202,618	112,35
202,997	113,35
203,375	113,45
203,754	113,89
204,133	114
204,511	113,45
204,89	112,5
205,269	111,59
205,647	112,22
206,026	111,97
206,404	112,17
206,782	112,13
207,161	111,74
207,539	111,55
207,918	112,29
208,296	112,85
208,674	113,56
209,052	113,08
209,431	112,77
209,809	112,13
210,187	110,43
210,565	109,94
210,943	110,07
211,321	110,9
211,699	111,11
212,077	111,07
212,455	112,35
212,833	113,91
213,211	114,66
213,589	113,99
213,967	114,05
214,345	113
214,722	112,15
215,1	113,12
215,478	112,81
215,855	110,83
216,233	110,64
216,611	111,99
216,988	114,38
217,366	116,56
217,743	118,22
218,121	120,62
218,498	121,17
218,876	121,35
219,253	122,47
219,631	124,86
220,008	126,04
220,385	126,54
220,762	126,77
221,14	129,82
221,517	132,21
221,894	133,67
222,271	138,36
222,648	142,42
223,025	143,59
223,402	146,64
223,78	150,39
224,157	152,49
224,533	149,92
224,91	147,74
225,287	147,17
225,664	149,27
226,041	152,81
226,418	156,03
226,795	156,66
227,171	157,02
227,548	157,6
227,925	159,5
228,301	161,16
228,678	162,55
229,055	159,57
229,431	159,47
229,808	160,94
230,184	161,36
230,561	161,08
230,937	162,19
231,313	164,33
231,69	166,16
232,066	165,68
232,442	169,03
232,819	173,71
233,195	173,55
233,571	175
233,947	174,86
234,323	174,27
234,699	178,61
235,075	181,37
235,451	183,08
235,827	185,85
236,203	188,45
236,579	193,76
236,955	203,62
237,331	214,06
237,707	228,61
238,083	253,95
238,459	302,48
238,834	387,06
239,21	548,6
239,586	872,32
239,961	1774,55
240,337	5450
240,713	-10944,44
241,088	-3096,87
241,464	-2265,91
241,839	-1711,86
242,215	-1040,4
242,59	-607,6
242,965	-336,13
243,341	-202,68
243,716	-138,95
244,091	-110,71
244,467	-95,69
244,842	-86,63
245,217	-79,55
245,592	-75,84
245,967	-75,96
246,343	-75,77
246,718	-75,84
247,093	-78,38
247,468	-80,12
247,843	-79,22
248,218	-75,69
248,593	-70,59
248,967	-65,37
249,342	-62,53
249,717	-60,45
250,092	-59,06
250,467	-59,69
250,841	-64,13
251,216	-72,75
251,591	-86,75
251,965	-100,1
252,34	-109,69
252,714	-120,05
253,089	-128,77
253,463	-135,26
253,838	-133,87
254,212	-128,41
254,587	-119,76
254,961	-104,81
255,335	-89,93
255,71	-75,56
256,084	-60
256,458	-48,85
256,832	-41,99
257,206	-37,94
257,581	-36,15
257,955	-34,97
258,329	-33,82
258,703	-32,1
259,077	-30,47
259,451	-28,95
259,825	-28,16
260,199	-28,08
260,572	-27,7
260,946	-27,58
261,32	-26,98
261,694	-26,21
262,068	-26,06
262,441	-25,91
262,815	-25,91
263,189	-25,72
263,562	-26,17
263,936	-28,5
264,309	-31,41
264,683	-34,3
265,056	-35,98
265,43	-36,83
265,803	-36,97
266,176	-36,64
266,55	-36,68
266,923	-36,55
267,296	-35,77
267,67	-34,55
268,043	-33,62
268,416	-32,12
268,789	-30,34
269,162	-28,91
269,535	-27,36
269,908	-25,83
270,281	-24,87
270,654	-24,69
271,027	-25,37
271,4	-25,65
271,773	-25,4
272,146	-25,34
272,519	-25,4
272,891	-25,31
273,264	-25,24
273,637	-25,12
274,01	-24,74
274,382	-24,63
274,755	-24,57
275,127	-24,52
275,5	-24,4
275,872	-24,03
276,245	-23,84
276,617	-24,1
276,99	-24,42
277,362	-25,23
277,734	-25,62
278,107	-25,55
278,479	-25,15
278,851	-24,29
279,223	-23,6
279,596	-23,05
279,968	-22,92
280,34	-22,72
280,712	-22,25
281,084	-21,28
281,456	-20,21
281,828	-19,42
282,2	-18,21
282,572	-17,3
282,944	-16,74
283,315	-16,44
283,687	-16,15
284,059	-16,18
284,431	-16,1
284,802	-15,78
285,174	-15,26
285,546	-14,74
285,917	-14,12
286,289	-13,61
286,66	-13,35
287,032	-13,03
287,403	-12,7
287,775	-12,4
288,146	-12,37
288,518	-12,49
288,889	-12,47
289,26	-12,75
289,632	-13,14
290,003	-13,6
290,374	-13,76
290,745	-13,77
291,116	-13,85
291,487	-13,92
291,858	-13,79
292,229	-13,65
292,6	-13,38
292,971	-12,8
293,342	-12,43
293,713	-12,11
294,084	-11,79
294,455	-11,24
294,826	-10,81
295,196	-10,74
295,567	-10,88
295,938	-10,6
296,308	-10,2
296,679	-9,97
297,05	-9,62
297,42	-9,17
297,791	-8,76
298,161	-8,52
298,532	-8,19
298,902	-7,72
299,272	-7,41
299,643	-7,22
300,013	-6,78
300,383	-6,47
300,754	-6,53
301,124	-6,69
301,494	-6,85
301,864	-6,94
302,234	-7,19
302,604	-7,48
302,974	-7,58
303,344	-7,35
303,714	-6,98
304,084	-6,52
304,454	-6,17
304,824	-5,94
305,194	-5,89
305,563	-5,91
305,933	-5,7
306,303	-5,43
306,673	-5,14
307,042	-4,73
307,412	-4,25
307,781	-3,8
308,151	-3,44
308,521	-3,23
308,89	-2,89
309,259	-2,72
309,629	-2,59
309,998	-2,3
310,368	-2,08
310,737	-1,78
311,106	-1,65
311,475	-1,58
311,845	-1,64
312,214	-1,59
312,583	-1,51
312,952	-1,47
313,321	-1,3
313,69	-1,07
314,059	-1
314,428	-0,99
314,797	-1
315,166	-1,19
315,535	-1,54
315,904	-1,92
316,272	-1,94
316,641	-2,04
317,01	-1,98
317,379	-1,86
317,747	-1,63
318,116	-1,31
318,484	-1,03
318,853	-0,71
319,221	-0,55
319,59	-0,51
319,958	-0,37
320,327	-0,23
320,695	-0,07
321,063	0,18
321,432	0,43
321,8	0,8
322,168	1,09
322,536	1,18
322,905	1,59
323,273	2,12
323,641	2,52
324,009	2,75
324,377	2,96
324,745	3,18
325,113	3,4
325,481	3,62
325,849	3,88
326,216	4,05
326,584	4,16
326,952	4,34
327,32	4,58
327,687	4,65
328,055	4,88
328,423	5,16
328,79	5,28
329,158	5,38
329,525	5,41
329,893	5,48
330,26	5,68
330,628	5,74
330,995	5,7
331,362	5,7
331,73	5,76
332,097	5,95
332,464	6,11
332,831	6,32
333,199	6,4
333,566	6,35
333,933	6,36
334,3	6,49
334,667	6,65
335,034	6,79
335,401	6,98
335,768	7,09
336,135	7,16
336,502	7,24
336,868	7,3
337,235	7,36
337,602	7,49
337,969	7,68
338,335	7,93
338,702	8,31
339,069	8,53
339,435	8,64
339,802	8,75
340,168	8,83
340,535	8,97
340,901	8,91
341,267	8,97
341,634	9,1
342	9,23
342,366	9,31
342,733	9,38
343,099	9,53
343,465	9,61
343,831	9,73
344,197	9,92
344,563	10,06
344,929	10,18
345,295	10,28
345,661	10,4
346,027	10,48
346,393	10,42
346,759	10,49
347,125	10,57
347,491	10,63
347,856	10,7
348,222	10,66
348,588	10,92
348,953	11,09
349,319	11,19
349,684	11,21
350,05	11,24
350,415	11,33
350,781	11,38
351,146	11,53
351,512	11,64
351,877	11,63
352,242	11,6
352,608	11,63
352,973	11,71
353,338	11,8
353,703	11,87
354,068	12,02
354,433	12,13
354,798	12,29
355,164	12,42
355,528	12,51
355,893	12,64
356,258	12,69
356,623	12,79
356,988	12,95
357,353	13,11
357,718	13,24
358,082	13,34
358,447	13,41
358,812	13,52
359,176	13,64
359,541	13,8
359,905	13,94
360,27	14,07
360,634	14,19
360,999	14,25
361,363	14,26
361,728	14,31
362,092	14,43
362,456	14,49
362,821	14,61
363,185	14,75
363,549	14,88
363,913	14,94
364,277	15
364,641	15,01
365,005	15,05
365,369	15,09
365,733	15,19
366,097	15,28
366,461	15,34
366,825	15,43
367,189	15,45
367,553	15,55
367,916	15,64
368,28	15,68
368,644	15,78
369,007	15,9
369,371	16,01
369,734	16,12
370,098	16,19
370,461	16,24
370,825	16,37
371,188	16,42
371,552	16,5
371,915	16,56
372,278	16,73
372,642	16,89
373,005	17,05
373,368	17,21
373,731	17,35
374,094	17,43
374,457	17,54
374,82	17,71
375,183	17,84
375,546	17,92
375,909	17,99
376,272	18,06
376,635	18,19
376,998	18,26
377,361	18,35
377,723	18,48
378,086	18,56
378,449	18,57
378,811	18,63
379,174	18,73
379,537	18,8
379,899	18,84
380,262	18,86
380,624	18,91
380,987	18,96
381,349	19,03
381,711	19,11
382,074	19,15
382,436	19,17
382,798	19,31
383,16	19,38
383,522	19,47
383,884	19,53
384,247	19,56
384,609	19,61
384,971	19,61
385,333	19,61
385,695	19,63
386,056	19,69
386,418	19,78
386,78	19,8
387,142	19,81
387,504	19,85
387,865	19,88
388,227	19,9
388,589	19,94
388,95	19,97
389,312	20
389,673	20,04
390,035	20,1
390,396	20,06
390,758	20,09
391,119	20,15
391,48	20,24
391,842	20,27
392,203	20,27
392,564	20,3
392,925	20,35
393,286	20,39
393,648	20,44
394,009	20,47
394,37	20,49
394,731	20,57
395,092	20,63
395,452	20,69
395,813	20,73
396,174	20,78
396,535	20,83
396,896	20,85
397,257	20,88
397,617	20,93
397,978	21,01
398,338	21,05
398,699	21,1
399,06	21,17
399,42	21,22
399,781	21,27
400,141	21,3
400,501	21,35
400,862	21,41
401,222	21,43
401,582	21,47
401,943	21,49
402,303	21,49
402,663	21,51
403,023	21,53
403,383	21,6
403,743	21,62
404,103	21,61
404,463	21,63
404,823	21,7
405,183	21,72
405,543	21,71
405,903	21,77
406,262	21,77
406,622	21,75
406,982	21,77
407,342	21,79
407,701	21,81
408,061	21,8
408,42	21,8
408,78	21,82
409,139	21,81
409,499	21,85
409,858	21,91
410,217	21,96
410,577	21,98
410,936	21,98
411,295	21,99
411,655	22
412,014	22,04
412,373	21,99
412,732	21,95
413,091	21,97
413,45	21,95
413,809	21,94
414,168	21,93
414,527	21,94
414,886	21,97
415,245	21,97
415,603	21,95
415,962	21,94
416,321	21,92
416,679	21,91
417,038	21,88
417,397	21,84
417,755	21,8
418,114	21,78
418,472	21,76
418,831	21,76
419,189	21,76
419,547	21,74
419,906	21,76
420,264	21,75
420,622	21,73
420,981	21,74
421,339	21,74
421,697	21,74
422,055	21,74
422,413	21,74
422,771	21,75
423,129	21,77
423,487	21,79
423,845	21,81
424,203	21,82
424,56	21,85
424,918	21,89
425,276	21,93
425,634	21,96
425,991	22
426,349	22,04
426,707	22,08
427,064	22,14
427,422	22,17
427,779	22,26
428,137	22,34
428,494	22,41
428,851	22,47
429,209	22,52
429,566	22,56
429,923	22,58
430,28	22,61
430,637	22,62
430,995	22,65
431,352	22,68
431,709	22,68
432,066	22,69
432,423	22,69
432,78	22,72
433,137	22,74
433,493	22,74
433,85	22,77
434,207	22,75
434,564	22,75
434,92	22,76
435,277	22,73
435,634	22,73
435,99	22,7
436,347	22,69
436,703	22,69
437,06	22,71
437,416	22,72
437,773	22,73
438,129	22,74
438,485	22,74
438,841	22,72
439,198	22,75
439,554	22,76
439,91	22,79
440,266	22,79
440,622	22,8
440,978	22,81
441,334	22,79
441,69	22,8
442,046	22,79
442,402	22,81
442,758	22,84
443,113	22,83
443,469	22,84
443,825	22,83
444,181	22,84
444,536	22,85
444,892	22,85
445,247	22,86
445,603	22,89
445,958	22,9
446,314	22,93
446,669	22,93
447,025	22,94
447,38	22,95
447,735	22,95
448,09	22,96
448,446	23
448,801	23,04
449,156	23,07
449,511	23,12
449,866	23,12
450,221	23,16
450,576	23,2
450,931	23,25
451,286	23,3
451,641	23,35
451,995	23,37
452,35	23,45
452,705	23,49
453,06	23,52
453,414	23,55
453,769	23,59
454,123	23,64
454,478	23,67
454,832	23,69
455,187	23,7
455,541	23,69
455,896	23,68
456,25	23,64
456,604	23,61
456,958	23,59
457,313	23,57
457,667	23,54
458,021	23,52
458,375	23,54
458,729	23,55
459,083	23,55
459,437	23,56
459,791	23,55
460,145	23,55
460,499	23,55
460,852	23,54
461,206	23,53
461,56	23,52
461,914	23,53
462,267	23,53
462,621	23,56
462,974	23,58
463,328	23,62
463,681	23,65
464,035	23,71
464,388	23,76
464,742	23,81
465,095	23,86
465,448	23,92
465,801	23,92
466,155	23,95
466,508	23,97
466,861	23,97
467,214	24
467,567	24,02
467,92	24,03
468,273	24,04
468,626	24,07
468,979	24,08
469,332	24,08
469,684	24,09
470,037	24,11
470,39	24,12
470,743	24,12
471,095	24,11
471,448	24,11
471,8	24,1
472,153	24,13
472,505	24,12
472,858	24,11
473,21	24,11
473,562	24,15
473,915	24,16
474,267	24,16
474,619	24,15
474,971	24,15
475,324	24,16
475,676	24,18
476,028	24,2
476,38	24,21
476,732	24,22
477,084	24,21
477,436	24,21
477,787	24,2
478,139	24,22
478,491	24,26
478,843	24,27
479,195	24,27
479,546	24,26
479,898	24,3
480,249	24,35
480,601	24,41
480,952	24,39
481,304	24,32
481,655	24,27
482,007	24,22
482,358	24,17
482,709	24,14
483,061	24,11
483,412	24,1
483,763	24,09
484,114	24,09
484,465	24,08
484,816	24,06
485,167	24,06
485,518	24,04
485,869	24,01
486,22	24
486,571	23,99
486,922	23,98
487,272	23,97
487,623	23,93
487,974	23,88
488,324	23,86
488,675	23,89
489,025	23,92
489,376	23,95
489,726	23,96
490,077	23,98
490,427	24
490,778	24,01
491,128	24,03
491,478	24,03
491,828	24,04
492,179	24,06
492,529	24,08
492,879	24,1
493,229	24,14
493,579	24,19
493,929	24,22
494,279	24,23
494,629	24,24
494,979	24,24
495,328	24,24
495,678	24,23
496,028	24,28
496,378	24,31
496,727	24,35
497,077	24,41
497,426	24,45
497,776	24,45
498,125	24,47
498,475	24,45
498,824	24,46
499,174	24,48
499,523	24,5
499,872	24,51
500,221	24,54
500,571	24,55
500,92	24,55
501,269	24,57
501,618	24,59
501,967	24,61
502,316	24,62
502,665	24,64
503,014	24,66
503,363	24,68
503,711	24,69
504,06	24,7
504,409	24,73
504,758	24,73
505,106	24,73
505,455	24,75
505,803	24,76
506,152	24,77
506,5	24,76
506,849	24,75
507,197	24,75
507,546	24,74
507,894	24,76
508,242	24,76
508,59	24,76
508,939	24,75
509,287	24,73
509,635	24,75
509,983	24,76
510,331	24,77
510,679	24,77
511,027	24,77
511,375	24,79
511,723	24,79
512,07	24,81
512,418	24,84
512,766	24,86
513,114	24,89
513,461	24,92
513,809	24,95
514,156	24,96
514,504	24,99
514,851	25
515,199	25,01
515,546	25,01
515,893	25
516,241	25,01
516,588	25,01
516,935	25
517,282	24,99
517,63	24,98
517,977	24,96
518,324	24,98
518,671	24,99
519,018	24,99
519,365	24,98
519,711	24,97
520,058	24,98
520,405	24,98
520,752	24,99
521,099	24,96
521,445	24,99
521,792	24,97
522,138	24,98
522,485	24,96
522,832	24,96
523,178	24,95
523,524	24,95
523,871	24,98
524,217	24,98
524,563	25
524,91	25,06
525,256	25,12
525,602	25,13
525,948	25,1
526,294	25,07
526,64	25,03
526,986	25
527,332	24,96
527,678	24,93
528,024	24,92
528,37	24,92
528,716	24,92
529,061	24,93
529,407	24,95
529,753	24,96
530,098	24,96
530,444	24,98
530,789	24,97
531,135	24,96
531,48	24,95
531,826	24,93
532,171	24,9
532,516	24,86
532,862	24,85
533,207	24,87
533,552	24,89
533,897	24,94
534,242	24,96
534,587	25,01
534,932	25,05
535,277	25,05
535,622	25,05
535,967	25,05
536,312	25,05
536,657	25,05
537,001	25,07
537,346	25,1
537,691	25,16
538,035	25,2
538,38	25,24
538,724	25,25
539,069	25,25
539,413	25,22
539,758	25,19
540,102	25,16
540,446	25,14
540,791	25,13
541,135	25,12
541,479	25,14
541,823	25,13
542,167	25,11
542,512	25,13
542,856	25,13
543,2	25,14
543,543	25,14
543,887	25,13
544,231	25,12
544,575	25,09
544,919	25,04
545,262	25,01
545,606	24,98
545,95	24,97
546,293	24,98
546,637	25,02
546,98	25,06
547,324	25,09
547,667	25,15
548,011	25,17
548,354	25,21
548,697	25,22
549,04	25,25
549,384	25,29
549,727	25,28
550,07	25,3
550,413	25,34
550,756	25,33
551,099	25,34
551,442	25,35
551,785	25,36
552,128	25,38
552,47	25,39
552,813	25,41
553,156	25,47
553,499	25,49
553,841	25,5
554,184	25,5
554,526	25,49
554,869	25,46
555,211	25,47
555,554	25,42
555,896	25,39
556,238	25,35
556,581	25,31
556,923	25,32
557,265	25,33
557,607	25,29
557,949	25,29
558,291	25,31
558,633	25,3
558,975	25,32
559,317	25,31
559,659	25,3
560,001	25,29
560,343	25,25
560,685	25,24
561,026	25,23
561,368	25,23
561,71	25,24
562,051	25,23
562,393	25,23
562,734	25,24
563,076	25,26
563,417	25,26
563,759	25,25
564,1	25,21
564,441	25,18
564,782	25,13
565,124	25,13
565,465	25,1
565,806	25,1
566,147	25,08
566,488	25,05
566,829	25,06
567,17	25,03
567,511	25,04
567,851	25,04
568,192	25,02
568,533	24,99
568,874	24,97
569,214	24,99
569,555	24,95
569,895	24,93
570,236	24,89
570,576	24,86
570,917	24,86
571,257	24,84
571,598	24,83
571,938	24,87
572,278	24,84
572,618	24,83
572,959	24,82
573,299	24,81
573,639	24,8
573,979	24,79
574,319	24,81
574,659	24,78
574,999	24,73
575,339	24,7
575,678	24,69
576,018	24,68
576,358	24,63
576,698	24,63
577,037	24,64
577,377	24,66
577,716	24,67
578,056	24,67
578,395	24,68
578,735	24,69
579,074	24,65
579,413	24,66
579,753	24,62
580,092	24,63
580,431	24,6
580,77	24,62
581,109	24,62
581,448	24,57
581,787	24,56
582,126	24,59
582,465	24,62
582,804	24,62
583,143	24,59
583,482	24,61
583,82	24,61
584,159	24,6
584,498	24,56
584,836	24,58
585,175	24,58
585,514	24,61
585,852	24,58
586,19	24,58
586,529	24,56
586,867	24,57
587,205	24,54
587,544	24,57
587,882	24,55
588,22	24,52
588,558	24,52
588,896	24,51
589,234	24,5
589,572	24,47
589,91	24,47
590,248	24,48
590,586	24,46
590,924	24,44
591,262	24,45
591,599	24,47
591,937	24,46
592,275	24,44
592,612	24,44
592,95	24,47
593,287	24,57
593,625	24,61
593,962	24,63
594,299	24,65
594,637	24,65
594,974	24,65
595,311	24,66
595,648	24,66
595,985	24,68
596,322	24,68
596,659	24,71
596,996	24,71
597,333	24,69
597,67	24,73
598,007	24,74
598,344	24,72
598,681	24,73
599,017	24,71
599,354	24,74
599,691	24,75
600,027	24,75
600,364	24,72
600,7	24,72
601,037	24,77
601,373	24,81
601,71	24,86
602,046	24,9
602,382	24,93
602,718	24,93
603,054	24,94
603,391	24,9
603,727	24,88
604,063	24,87
604,399	24,9
604,735	24,89
605,071	24,89
605,406	24,93
605,742	24,95
606,078	24,99
606,414	24,98
606,749	24,97
607,085	24,95
607,421	24,92
607,756	24,91
608,092	24,86
608,427	24,82
608,762	24,77
609,098	24,76
609,433	24,73
609,768	24,77
610,104	24,77
610,439	24,82
610,774	24,83
611,109	24,84
611,444	24,85
611,779	24,81
612,114	24,79
612,449	24,76
612,784	24,7
613,118	24,66
613,453	24,63
613,788	24,63
614,123	24,65
614,457	24,64
614,792	24,59
615,126	24,57
615,461	24,58
615,795	24,6
616,13	24,56
616,464	24,57
616,798	24,51
617,132	24,46
617,467	24,4
617,801	24,4
618,135	24,39
618,469	24,34
618,803	24,36
619,137	24,43
619,471	24,44
619,805	24,42
620,139	24,43
620,472	24,47
620,806	24,38
621,14	24,37
621,473	24,35
621,807	24,35
622,141	24,34
622,474	24,34
622,808	24,35
623,141	24,39
623,474	24,4
623,808	24,43
624,141	24,5
624,474	24,6
624,807	24,62
625,141	24,65
625,474	24,66
625,807	24,69
626,14	24,62
626,473	24,64
626,806	24,67
627,138	24,63
627,471	24,6
627,804	24,61
628,137	24,63
628,469	24,63
628,802	24,64
629,135	24,65
629,467	24,65
629,8	24,64
630,132	24,61
630,465	24,61
630,797	24,57
631,129	24,53
631,461	24,52
631,794	24,5
632,126	24,46
632,458	24,5
632,79	24,46
633,122	24,51
633,454	24,52
633,786	24,56
634,118	24,57
634,45	24,56
634,781	24,6
635,113	24,59
635,445	24,55
635,777	24,56
636,108	24,58
636,44	24,56
636,771	24,57
637,103	24,54
637,434	24,49
637,765	24,49
638,097	24,53
638,428	24,51
638,759	24,49
639,09	24,47
639,422	24,42
639,753	24,43
640,084	24,4
640,415	24,35
640,746	24,28
641,077	24,27
641,407	24,33
641,738	24,36
642,069	24,38
642,4	24,44
642,73	24,45
643,061	24,5
643,392	24,5
643,722	24,49
644,053	24,52
644,383	24,55
644,713	24,6
645,044	24,59
645,374	24,6
645,704	24,62
646,034	24,67
