Data from zc74010_2_Reflection_00002.txt Node
Date: Thu Mar 12 14:59:44 ART 2020
User: Ana
Spectrometer: USB2E3644
Trigger mode: 4
Integration Time (sec): 5,000000E-2
Scans to average: 10
Electric dark correction enabled: true
Nonlinearity correction enabled: false
Boxcar width: 10
XAxis mode: Wavelengths
Number of Pixels in Spectrum: 2048
>>>>>Begin Spectral Data<<<<<
178,315	92,83
178,696	96,12
179,076	101,11
179,457	97,74
179,838	122,38
180,218	179,26
180,599	894,44
180,979	80,65
181,36	248,61
181,74	143,83
182,121	112,08
182,501	100,55
182,881	92,96
183,262	85,77
183,642	81,93
184,022	81,7
184,402	84,07
184,783	89,47
185,163	91,31
185,543	94,82
185,923	96,55
186,303	96,46
186,683	96,57
187,063	98,15
187,443	100,41
187,823	102,7
188,203	102,2
188,583	101,93
188,963	101,83
189,343	102,12
189,723	103,94
190,102	109,28
190,482	114,72
190,862	117,84
191,242	121,46
191,621	124,25
192,001	125,72
192,38	127,21
192,76	127,59
193,14	129,45
193,519	130,71
193,898	132,73
194,278	135,58
194,657	138,94
195,037	139,74
195,416	136,72
195,795	135,33
196,175	136,04
196,554	136,26
196,933	135,3
197,312	133,9
197,692	132
198,071	129,33
198,45	128,14
198,829	128,07
199,208	128,11
199,587	127,31
199,966	125,9
200,345	123,84
200,724	123,2
201,103	122,81
201,482	122,74
201,86	122,97
202,239	120,85
202,618	118,95
202,997	119,07
203,375	120,06
203,754	120,25
204,133	120
204,511	119,7
204,89	119,76
205,269	121,11
205,647	122,59
206,026	123,23
206,404	123,86
206,782	123,75
207,161	123,97
207,539	124,34
207,918	125,58
208,296	127,74
208,674	128,95
209,052	130,14
209,431	131,17
209,809	131
210,187	131,45
210,565	131,45
210,943	130,74
211,321	130,56
211,699	132,31
212,077	134,23
212,455	135,11
212,833	136,06
213,211	135,68
213,589	135,58
213,967	134,68
214,345	133,39
214,722	133,5
215,1	132,72
215,478	131,8
215,855	131,11
216,233	129,9
216,611	129,56
216,988	128,97
217,366	127,96
217,743	128,37
218,121	130,13
218,498	131,87
218,876	132,03
219,253	130,7
219,631	128,68
220,008	126,84
220,385	126,53
220,762	126,27
221,14	125,94
221,517	125,51
221,894	126,69
222,271	126,88
222,648	126,25
223,025	125,91
223,402	126,09
223,78	126,39
224,157	126,93
224,533	126,43
224,91	127,16
225,287	129,58
225,664	131,91
226,041	132,95
226,418	132,85
226,795	133,82
227,171	135,38
227,548	136,81
227,925	137,61
228,301	138,14
228,678	138,55
229,055	138,68
229,431	138,6
229,808	138,11
230,184	137,45
230,561	138,35
230,937	140,23
231,313	142,53
231,69	144,42
232,066	146,36
232,442	148,12
232,819	147,77
233,195	144,99
233,571	143,06
233,947	143,75
234,323	145,75
234,699	147,49
235,075	149,41
235,451	152,07
235,827	154,33
236,203	154,56
236,579	155,8
236,955	160,6
237,331	169,36
237,707	180,96
238,083	195,98
238,459	213,37
238,834	240,82
239,21	284,21
239,586	340,95
239,961	404,55
240,337	473,01
240,713	535,3
241,088	608,37
241,464	693,62
241,839	805,89
242,215	1062,13
242,59	2467,01
242,965	-1506,04
243,341	-427,15
243,716	-231,83
244,091	-168,25
244,467	-140,52
244,842	-123,84
245,217	-112,47
245,592	-107,35
245,967	-106,76
246,343	-104,05
246,718	-101,97
247,093	-104,36
247,468	-107,78
247,843	-107,93
248,218	-104,28
248,593	-97,28
248,967	-89,87
249,342	-86,24
249,717	-84,35
250,092	-83,4
250,467	-84,86
250,841	-90,47
251,216	-103,76
251,591	-125,58
251,965	-150,44
252,34	-170,31
252,714	-191,5
253,089	-206,44
253,463	-215,51
253,838	-212,7
254,212	-206,56
254,587	-195,88
254,961	-173,17
255,335	-146,69
255,71	-120,43
256,084	-93,19
256,458	-73,78
256,832	-62,33
257,206	-56,13
257,581	-53,3
257,955	-51,51
258,329	-49,49
258,703	-47,18
259,077	-45,13
259,451	-43,3
259,825	-42,37
260,199	-42,23
260,572	-41,68
260,946	-41,96
261,32	-41,72
261,694	-41,33
262,068	-41,33
262,441	-41,24
262,815	-41,25
263,189	-41,17
263,562	-42,12
263,936	-45,36
264,309	-50,35
264,683	-55,93
265,056	-59,21
265,43	-60,3
265,803	-60,57
266,176	-60,41
266,55	-60,29
266,923	-59,24
267,296	-57,58
267,67	-55,02
268,043	-52,46
268,416	-49,21
268,789	-45,76
269,162	-43
269,535	-40,64
269,908	-38,63
270,281	-37,32
270,654	-36,91
271,027	-37,2
271,4	-37,28
271,773	-36,8
272,146	-36,57
272,519	-36,36
272,891	-36,19
273,264	-36,41
273,637	-36,3
274,01	-35,97
274,382	-36,48
274,755	-36,96
275,127	-37,47
275,5	-38,05
275,872	-38,3
276,245	-38,89
276,617	-40
276,99	-40,91
277,362	-42,04
277,734	-42,76
278,107	-42,56
278,479	-42,06
278,851	-41,09
279,223	-40,4
279,596	-39,79
279,968	-39,21
280,34	-38,38
280,712	-37,67
281,084	-35,88
281,456	-33,98
281,828	-32,25
282,2	-29,81
282,572	-27,98
282,944	-26,71
283,315	-25,69
283,687	-24,79
284,059	-24,28
284,431	-23,81
284,802	-23,01
285,174	-22,23
285,546	-21,63
285,917	-21,09
286,289	-20,59
286,66	-20,41
287,032	-20,01
287,403	-19,75
287,775	-19,74
288,146	-19,96
288,518	-20,05
288,889	-20,25
289,26	-20,55
289,632	-21,19
290,003	-22,03
290,374	-22,56
290,745	-22,79
291,116	-22,8
291,487	-22,86
291,858	-22,75
292,229	-22,37
292,6	-22
292,971	-21,32
293,342	-20,47
293,713	-19,62
294,084	-18,8
294,455	-17,94
294,826	-17,46
295,196	-17,34
295,567	-17,39
295,938	-17,01
296,308	-16,56
296,679	-16,16
297,05	-15,8
297,42	-15,3
297,791	-14,76
298,161	-14,52
298,532	-14,18
298,902	-13,91
299,272	-13,76
299,643	-13,6
300,013	-13,3
300,383	-13,12
300,754	-13,22
301,124	-13,58
301,494	-14,01
301,864	-14,45
302,234	-14,85
302,604	-15
302,974	-14,84
303,344	-14,27
303,714	-13,83
304,084	-13,53
304,454	-13,36
304,824	-13,22
305,194	-13,15
305,563	-13,16
305,933	-12,99
306,303	-12,74
306,673	-12,44
307,042	-12,07
307,412	-11,53
307,781	-11,04
308,151	-10,78
308,521	-10,56
308,89	-10,26
309,259	-10,19
309,629	-10,12
309,998	-10,02
310,368	-9,98
310,737	-9,88
311,106	-9,88
311,475	-10,01
311,845	-10,17
312,214	-10,26
312,583	-10,24
312,952	-10,29
313,321	-10,25
313,69	-10,07
314,059	-10,11
314,428	-10,25
314,797	-10,41
315,166	-10,78
315,535	-11,29
315,904	-11,73
316,272	-12,13
316,641	-12,38
317,01	-12,32
317,379	-12,32
317,747	-12,17
318,116	-11,89
318,484	-11,85
318,853	-11,8
319,221	-11,65
319,59	-11,56
319,958	-11,3
320,327	-11,07
320,695	-10,86
321,063	-10,61
321,432	-10,32
321,8	-9,88
322,168	-9,63
322,536	-9,48
322,905	-9,04
323,273	-8,63
323,641	-8,32
324,009	-7,93
324,377	-7,68
324,745	-7,44
325,113	-7,08
325,481	-6,77
325,849	-6,6
326,216	-6,41
326,584	-6,2
326,952	-6,06
327,32	-5,83
327,687	-5,76
328,055	-5,62
328,423	-5,43
328,79	-5,38
329,158	-5,39
329,525	-5,47
329,893	-5,37
330,26	-5,15
330,628	-5,07
330,995	-4,93
331,362	-4,8
331,73	-4,76
332,097	-4,66
332,464	-4,56
332,831	-4,44
333,199	-4,41
333,566	-4,31
333,933	-4,08
334,3	-3,87
334,667	-3,71
335,034	-3,67
335,401	-3,6
335,768	-3,54
336,135	-3,48
336,502	-3,35
336,868	-3,28
337,235	-3,22
337,602	-3,15
337,969	-3,07
338,335	-2,98
338,702	-2,83
339,069	-2,7
339,435	-2,65
339,802	-2,55
340,168	-2,47
340,535	-2,39
340,901	-2,42
341,267	-2,44
341,634	-2,42
342	-2,42
342,366	-2,32
342,733	-2,23
343,099	-2,13
343,465	-2,1
343,831	-2,09
344,197	-2,05
344,563	-2,03
344,929	-1,96
345,295	-1,85
345,661	-1,74
346,027	-1,7
346,393	-1,76
346,759	-1,72
347,125	-1,62
347,491	-1,56
347,856	-1,49
348,222	-1,53
348,588	-1,41
348,953	-1,29
349,319	-1,32
349,684	-1,3
350,05	-1,27
350,415	-1,14
350,781	-1,02
351,146	-0,88
351,512	-0,73
351,877	-0,67
352,242	-0,65
352,608	-0,61
352,973	-0,6
353,338	-0,51
353,703	-0,38
354,068	-0,3
354,433	-0,23
354,798	-0,16
355,164	-0,09
355,528	0,03
355,893	0,16
356,258	0,25
356,623	0,35
356,988	0,52
357,353	0,69
357,718	0,81
358,082	0,88
358,447	0,94
358,812	1,07
359,176	1,16
359,541	1,32
359,905	1,49
360,27	1,62
360,634	1,74
360,999	1,77
361,363	1,77
361,728	1,83
362,092	1,93
362,456	2,02
362,821	2,13
363,185	2,17
363,549	2,25
363,913	2,28
364,277	2,28
364,641	2,28
365,005	2,3
365,369	2,31
365,733	2,36
366,097	2,41
366,461	2,43
366,825	2,46
367,189	2,45
367,553	2,49
367,916	2,59
368,28	2,69
368,644	2,77
369,007	2,87
369,371	2,98
369,734	3,03
370,098	3,07
370,461	3,11
370,825	3,18
371,188	3,24
371,552	3,32
371,915	3,41
372,278	3,59
372,642	3,73
373,005	3,83
373,368	3,96
373,731	4,06
374,094	4,15
374,457	4,26
374,82	4,39
375,183	4,48
375,546	4,54
375,909	4,55
376,272	4,61
376,635	4,7
376,998	4,77
377,361	4,84
377,723	4,92
378,086	4,97
378,449	5,01
378,811	5,06
379,174	5,13
379,537	5,19
379,899	5,2
380,262	5,19
380,624	5,23
380,987	5,26
381,349	5,3
381,711	5,33
382,074	5,39
382,436	5,44
382,798	5,53
383,16	5,57
383,522	5,66
383,884	5,72
384,247	5,78
384,609	5,86
384,971	5,91
385,333	5,95
385,695	5,99
386,056	6,03
386,418	6,07
386,78	6,1
387,142	6,14
387,504	6,15
387,865	6,2
388,227	6,24
388,589	6,28
388,95	6,34
389,312	6,38
389,673	6,37
390,035	6,36
390,396	6,35
390,758	6,35
391,119	6,36
391,48	6,37
391,842	6,38
392,203	6,38
392,564	6,38
392,925	6,41
393,286	6,44
393,648	6,46
394,009	6,48
394,37	6,49
394,731	6,53
395,092	6,56
395,452	6,57
395,813	6,59
396,174	6,6
396,535	6,59
396,896	6,57
397,257	6,62
397,617	6,69
397,978	6,71
398,338	6,73
398,699	6,75
399,06	6,79
399,42	6,79
399,781	6,77
400,141	6,79
400,501	6,79
400,862	6,82
401,222	6,84
401,582	6,85
401,943	6,88
402,303	6,88
402,663	6,89
403,023	6,92
403,383	6,93
403,743	6,94
404,103	6,97
404,463	7,03
404,823	7,08
405,183	7,09
405,543	7,11
405,903	7,12
406,262	7,14
406,622	7,11
406,982	7,12
407,342	7,14
407,701	7,15
408,061	7,17
408,42	7,19
408,78	7,21
409,139	7,22
409,499	7,22
409,858	7,22
410,217	7,24
410,577	7,23
410,936	7,21
411,295	7,18
411,655	7,14
412,014	7,09
412,373	7,03
412,732	7
413,091	6,98
413,45	6,92
413,809	6,86
414,168	6,82
414,527	6,79
414,886	6,75
415,245	6,72
415,603	6,67
415,962	6,63
416,321	6,59
416,679	6,56
417,038	6,52
417,397	6,48
417,755	6,44
418,114	6,44
418,472	6,41
418,831	6,41
419,189	6,42
419,547	6,42
419,906	6,41
420,264	6,37
420,622	6,35
420,981	6,35
421,339	6,37
421,697	6,37
422,055	6,38
422,413	6,4
422,771	6,41
423,129	6,44
423,487	6,46
423,845	6,47
424,203	6,49
424,56	6,53
424,918	6,57
425,276	6,62
425,634	6,64
425,991	6,68
426,349	6,72
426,707	6,74
427,064	6,78
427,422	6,82
427,779	6,88
428,137	6,95
428,494	6,99
428,851	7
429,209	7,02
429,566	7,02
429,923	7,02
430,28	7,01
430,637	7
430,995	6,99
431,352	6,99
431,709	7
432,066	7
432,423	7
432,78	6,98
433,137	6,98
433,493	6,97
433,85	6,97
434,207	6,95
434,564	6,93
434,92	6,92
435,277	6,91
435,634	6,88
435,99	6,86
436,347	6,87
436,703	6,89
437,06	6,87
437,416	6,88
437,773	6,88
438,129	6,87
438,485	6,88
438,841	6,88
439,198	6,88
439,554	6,86
439,91	6,87
440,266	6,86
440,622	6,85
440,978	6,84
441,334	6,8
441,69	6,79
442,046	6,79
442,402	6,78
442,758	6,77
443,113	6,76
443,469	6,75
443,825	6,74
444,181	6,74
444,536	6,75
444,892	6,75
445,247	6,76
445,603	6,77
445,958	6,78
446,314	6,78
446,669	6,79
447,025	6,79
447,38	6,79
447,735	6,81
448,09	6,81
448,446	6,82
448,801	6,85
449,156	6,87
449,511	6,88
449,866	6,9
450,221	6,92
450,576	6,96
450,931	7,01
451,286	7,05
451,641	7,08
451,995	7,11
452,35	7,15
452,705	7,18
453,06	7,19
453,414	7,19
453,769	7,21
454,123	7,2
454,478	7,19
454,832	7,2
455,187	7,17
455,541	7,16
455,896	7,15
456,25	7,13
456,604	7,11
456,958	7,09
457,313	7,07
457,667	7,07
458,021	7,05
458,375	7,05
458,729	7,05
459,083	7,05
459,437	7,05
459,791	7,04
460,145	7,03
460,499	7,02
460,852	7
461,206	6,99
461,56	6,99
461,914	6,99
462,267	6,99
462,621	7
462,974	7,01
463,328	7,03
463,681	7,03
464,035	7,03
464,388	7,04
464,742	7,06
465,095	7,07
465,448	7,08
465,801	7,06
466,155	7,05
466,508	7,03
466,861	7,02
467,214	7,02
467,567	7
467,92	7,01
468,273	7,02
468,626	7,02
468,979	7,01
469,332	7
469,684	6,99
470,037	7,01
470,39	7,01
470,743	7,01
471,095	7,03
471,448	7,04
471,8	7,06
472,153	7,08
472,505	7,08
472,858	7,07
473,21	7,09
473,562	7,1
473,915	7,11
474,267	7,11
474,619	7,1
474,971	7,1
475,324	7,09
475,676	7,08
476,028	7,1
476,38	7,12
476,732	7,12
477,084	7,11
477,436	7,09
477,787	7,09
478,139	7,09
478,491	7,08
478,843	7,08
479,195	7,05
479,546	7
479,898	6,97
480,249	6,94
480,601	6,91
480,952	6,88
481,304	6,87
481,655	6,86
482,007	6,86
482,358	6,85
482,709	6,85
483,061	6,84
483,412	6,83
483,763	6,82
484,114	6,82
484,465	6,82
484,816	6,81
485,167	6,81
485,518	6,8
485,869	6,8
486,22	6,81
486,571	6,81
486,922	6,82
487,272	6,82
487,623	6,84
487,974	6,85
488,324	6,86
488,675	6,86
489,025	6,86
489,376	6,87
489,726	6,88
490,077	6,88
490,427	6,89
490,778	6,9
491,128	6,92
491,478	6,93
491,828	6,94
492,179	6,97
492,529	6,97
492,879	6,97
493,229	6,99
493,579	7
493,929	7,01
494,279	7,03
494,629	7,05
494,979	7,05
495,328	7,08
495,678	7,11
496,028	7,13
496,378	7,15
496,727	7,16
497,077	7,17
497,426	7,2
497,776	7,2
498,125	7,2
498,475	7,19
498,824	7,2
499,174	7,2
499,523	7,21
499,872	7,24
500,221	7,25
500,571	7,25
500,92	7,24
501,269	7,26
501,618	7,25
501,967	7,26
502,316	7,27
502,665	7,26
503,014	7,25
503,363	7,24
503,711	7,24
504,06	7,23
504,409	7,23
504,758	7,2
505,106	7,22
505,455	7,24
505,803	7,24
506,152	7,23
506,5	7,22
506,849	7,22
507,197	7,21
507,546	7,21
507,894	7,22
508,242	7,23
508,59	7,21
508,939	7,2
509,287	7,19
509,635	7,18
509,983	7,2
510,331	7,2
510,679	7,22
511,027	7,23
511,375	7,24
511,723	7,25
512,07	7,27
512,418	7,27
512,766	7,26
513,114	7,27
513,461	7,27
513,809	7,29
514,156	7,28
514,504	7,27
514,851	7,25
515,199	7,25
515,546	7,25
515,893	7,24
516,241	7,27
516,588	7,28
516,935	7,3
517,282	7,3
517,63	7,32
517,977	7,33
518,324	7,34
518,671	7,34
519,018	7,34
519,365	7,33
519,711	7,32
520,058	7,33
520,405	7,33
520,752	7,33
521,099	7,33
521,445	7,34
521,792	7,34
522,138	7,34
522,485	7,34
522,832	7,36
523,178	7,36
523,524	7,35
523,871	7,33
524,217	7,31
524,563	7,3
524,91	7,26
525,256	7,24
525,602	7,22
525,948	7,23
526,294	7,23
526,64	7,22
526,986	7,22
527,332	7,21
527,678	7,21
528,024	7,21
528,37	7,23
528,716	7,23
529,061	7,23
529,407	7,24
529,753	7,23
530,098	7,22
530,444	7,22
530,789	7,22
531,135	7,23
531,48	7,23
531,826	7,23
532,171	7,23
532,516	7,25
532,862	7,26
533,207	7,25
533,552	7,24
533,897	7,27
534,242	7,28
534,587	7,29
534,932	7,3
535,277	7,31
535,622	7,31
535,967	7,32
536,312	7,34
536,657	7,33
537,001	7,34
537,346	7,36
537,691	7,37
538,035	7,35
538,38	7,35
538,724	7,35
539,069	7,36
539,413	7,36
539,758	7,35
540,102	7,36
540,446	7,36
540,791	7,37
541,135	7,36
541,479	7,35
541,823	7,37
542,167	7,36
542,512	7,35
542,856	7,34
543,2	7,33
543,543	7,31
543,887	7,32
544,231	7,33
544,575	7,32
544,919	7,32
545,262	7,35
545,606	7,35
545,95	7,36
546,293	7,37
546,637	7,37
546,98	7,38
547,324	7,38
547,667	7,39
548,011	7,4
548,354	7,42
548,697	7,43
549,04	7,41
549,384	7,4
549,727	7,39
550,07	7,41
550,413	7,41
550,756	7,43
551,099	7,42
551,442	7,41
551,785	7,42
552,128	7,43
552,47	7,42
552,813	7,4
553,156	7,41
553,499	7,4
553,841	7,41
554,184	7,41
554,526	7,39
554,869	7,36
555,211	7,35
555,554	7,32
555,896	7,3
556,238	7,28
556,581	7,25
556,923	7,22
557,265	7,18
557,607	7,15
557,949	7,13
558,291	7,11
558,633	7,1
558,975	7,07
559,317	7,03
559,659	7,01
560,001	6,99
560,343	6,96
560,685	6,92
561,026	6,89
561,368	6,86
561,71	6,84
562,051	6,81
562,393	6,78
562,734	6,75
563,076	6,74
563,417	6,74
563,759	6,75
564,1	6,76
564,441	6,75
564,782	6,75
565,124	6,72
565,465	6,73
565,806	6,71
566,147	6,69
566,488	6,67
566,829	6,67
567,17	6,65
567,511	6,64
567,851	6,65
568,192	6,64
568,533	6,64
568,874	6,64
569,214	6,66
569,555	6,66
569,895	6,63
570,236	6,6
570,576	6,57
570,917	6,56
571,257	6,53
571,598	6,51
571,938	6,5
572,278	6,48
572,618	6,47
572,959	6,49
573,299	6,48
573,639	6,47
573,979	6,45
574,319	6,43
574,659	6,4
574,999	6,38
575,339	6,35
575,678	6,32
576,018	6,3
576,358	6,27
576,698	6,24
577,037	6,23
577,377	6,22
577,716	6,19
578,056	6,16
578,395	6,13
578,735	6,1
579,074	6,05
579,413	6,03
579,753	5,98
580,092	5,9
580,431	5,85
580,77	5,82
581,109	5,79
581,448	5,78
581,787	5,76
582,126	5,74
582,465	5,72
582,804	5,68
583,143	5,65
583,482	5,62
583,82	5,61
584,159	5,59
584,498	5,59
584,836	5,61
585,175	5,61
585,514	5,62
585,852	5,64
586,19	5,66
586,529	5,65
586,867	5,65
587,205	5,68
587,544	5,69
587,882	5,7
588,22	5,7
588,558	5,7
588,896	5,7
589,234	5,68
589,572	5,67
589,91	5,67
590,248	5,64
590,586	5,64
590,924	5,63
591,262	5,63
591,599	5,61
591,937	5,59
592,275	5,57
592,612	5,57
592,95	5,57
593,287	5,58
593,625	5,6
593,962	5,61
594,299	5,64
594,637	5,67
594,974	5,69
595,311	5,71
595,648	5,72
595,985	5,74
596,322	5,75
596,659	5,76
596,996	5,78
597,333	5,78
597,67	5,77
598,007	5,77
598,344	5,77
598,681	5,76
599,017	5,76
599,354	5,78
599,691	5,78
600,027	5,78
600,364	5,79
600,7	5,8
601,037	5,81
601,373	5,81
601,71	5,83
602,046	5,84
602,382	5,84
602,718	5,85
603,054	5,85
603,391	5,86
603,727	5,88
604,063	5,89
604,399	5,92
604,735	5,94
605,071	5,95
605,406	5,94
605,742	5,95
606,078	5,98
606,414	6
606,749	6,02
607,085	6,05
607,421	6,06
607,756	6,05
608,092	6,05
608,427	6,04
608,762	6,01
609,098	5,99
609,433	5,97
609,768	5,94
610,104	5,93
610,439	5,9
610,774	5,89
611,109	5,86
611,444	5,82
611,779	5,81
612,114	5,8
612,449	5,81
612,784	5,79
613,118	5,76
613,453	5,69
613,788	5,64
614,123	5,55
614,457	5,48
614,792	5,42
615,126	5,38
615,461	5,32
615,795	5,28
616,13	5,22
616,464	5,19
616,798	5,16
617,132	5,14
617,467	5,13
617,801	5,12
618,135	5,12
618,469	5,14
618,803	5,11
619,137	5,09
619,471	5,1
619,805	5,08
620,139	5,06
620,472	5,06
620,806	5,05
621,14	5,05
621,473	5,04
621,807	5,03
622,141	5,03
622,474	5,03
622,808	5,04
623,141	5,06
623,474	5,09
623,808	5,13
624,141	5,16
624,474	5,21
624,807	5,23
625,141	5,25
625,474	5,27
625,807	5,33
626,14	5,34
626,473	5,36
626,806	5,39
627,138	5,42
627,471	5,41
627,804	5,43
628,137	5,46
628,469	5,48
628,802	5,51
629,135	5,52
629,467	5,54
629,8	5,54
630,132	5,54
630,465	5,53
630,797	5,51
631,129	5,5
631,461	5,47
631,794	5,44
632,126	5,42
632,458	5,39
632,79	5,37
633,122	5,38
633,454	5,37
633,786	5,34
634,118	5,31
634,45	5,31
634,781	5,31
635,113	5,31
635,445	5,31
635,777	5,31
636,108	5,3
636,44	5,3
636,771	5,28
637,103	5,25
637,434	5,23
637,765	5,2
638,097	5,17
638,428	5,16
638,759	5,14
639,09	5,14
639,422	5,13
639,753	5,13
640,084	5,1
640,415	5,08
640,746	5,06
641,077	5,08
641,407	5,06
641,738	5,05
642,069	5,04
642,4	5,03
642,73	5,01
643,061	4,99
643,392	4,96
643,722	4,98
644,053	5,01
644,383	5,01
644,713	5,04
645,044	5,06
645,374	5,07
645,704	5,08
646,034	5,06
646,365	5,04
646,695	5,02
647,025	5,03
647,355	5,03
647,685	5,07
648,015	5,07
648,344	5,07
648,674	5,06
649,004	5,06
649,334	5,06
649,663	5,06
649,993	5,07
650,323	5,12
650,652	5,09
650,982	5,08
651,311	5,09
651,64	5,06
651,97	5,06
652,299	5,06
652,628	5,06
652,958	5,07
653,287	5,1
653,616	5,12
653,945	5,15
654,274	5,15
654,603	5,11
654,932	5,1
655,261	5,12
655,589	5,15
655,918	5,22
656,247	5,29
656,576	5,33
656,904	5,38
657,233	5,39
657,561	5,46
657,89	5,51
658,218	5,53
658,547	5,55
658,875	5,6
659,203	5,62
659,532	5,63
659,86	5,64
660,188	5,63
660,516	5,64
660,844	5,65
661,172	5,67
661,5	5,75
661,828	5,79
662,156	5,8
662,484	5,81
662,811	5,77
