Data from zc74010_1_Reflection_00004.txt Node
Date: Thu Mar 12 14:58:47 ART 2020
User: Ana
Spectrometer: USB2E3644
Trigger mode: 4
Integration Time (sec): 5,000000E-2
Scans to average: 10
Electric dark correction enabled: true
Nonlinearity correction enabled: false
Boxcar width: 10
XAxis mode: Wavelengths
Number of Pixels in Spectrum: 2048
>>>>>Begin Spectral Data<<<<<
178,315	107,55
178,696	110,08
179,076	111,62
179,457	98,97
179,838	106,67
180,218	168,15
180,599	911,11
180,979	70,97
181,36	352,78
181,74	195,68
182,121	160,83
182,501	117,32
182,881	118,36
183,262	119,62
183,642	123,12
184,022	124,44
184,402	127,41
184,783	128,24
185,163	125,23
185,543	126,31
185,923	128,3
186,303	128,82
186,683	127,9
187,063	129,71
187,443	133,33
187,823	137,06
188,203	140,88
188,583	143,62
188,963	141,6
189,343	138,93
189,723	138,44
190,102	141,13
190,482	144,13
190,862	143,98
191,242	143,99
191,621	141,97
192,001	141,5
192,38	141,61
192,76	140,65
193,14	142,24
193,519	141,93
193,898	141,31
194,278	142,16
194,657	144,34
195,037	143,5
195,416	138,03
195,795	135,13
196,175	133,42
196,554	130,96
196,933	129,17
197,312	127,7
197,692	127,07
198,071	125,77
198,45	125,09
198,829	125,81
199,208	126,85
199,587	127,15
199,966	126,72
200,345	125,59
200,724	125,25
201,103	124,43
201,482	123,63
201,86	123,02
202,239	120,7
202,618	119,79
202,997	121,01
203,375	123,34
203,754	124,05
204,133	124,63
204,511	125,01
204,89	125,33
205,269	126,29
205,647	126,23
206,026	125,75
206,404	125,61
206,782	124,39
207,161	123,72
207,539	123,31
207,918	123,95
208,296	125,41
208,674	126,22
209,052	127,81
209,431	130,01
209,809	131,26
210,187	133,06
210,565	133,06
210,943	131,82
211,321	131,13
211,699	132,26
212,077	133,54
212,455	134,32
212,833	135,8
213,211	136,06
213,589	136,95
213,967	137,38
214,345	137,06
214,722	138,18
215,1	138,09
215,478	138,62
215,855	139,12
216,233	139,51
216,611	140,29
216,988	140,09
217,366	138,8
217,743	138,69
218,121	139,16
218,498	140,11
218,876	140,04
219,253	137,91
219,631	136,14
220,008	134,19
220,385	133,56
220,762	132,96
221,14	132,96
221,517	131,89
221,894	131,49
222,271	131,1
222,648	130,2
223,025	129,24
223,402	127,72
223,78	126,55
224,157	126,05
224,533	125,55
224,91	126,37
225,287	128,24
225,664	129,37
226,041	129,23
226,418	129,1
226,795	129,51
227,171	131,12
227,548	132,92
227,925	134,02
228,301	135,67
228,678	137,91
229,055	139,55
229,431	140,76
229,808	141,72
230,184	142,52
230,561	143,52
230,937	145,63
231,313	148,85
231,69	150,98
232,066	152,66
232,442	154,01
232,819	153,85
233,195	152,51
233,571	152,55
233,947	154,82
234,323	156,97
234,699	158,5
235,075	160,77
235,451	163,16
235,827	166,16
236,203	167,91
236,579	168,67
236,955	172,49
237,331	181,09
237,707	192,77
238,083	206,92
238,459	223,94
238,834	252,28
239,21	297,79
239,586	359,37
239,961	425,77
240,337	498,97
240,713	568,7
241,088	651,41
241,464	748,76
241,839	878,89
242,215	1170,47
242,59	2761,9
242,965	-1700,42
243,341	-481,74
243,716	-259,56
244,091	-185,9
244,467	-153,83
244,842	-135,16
245,217	-123,09
245,592	-117,71
245,967	-117,73
246,343	-115,46
246,718	-113,5
247,093	-115,43
247,468	-117,67
247,843	-117,11
248,218	-112,16
248,593	-103,74
248,967	-94,78
249,342	-89,97
249,717	-87,45
250,092	-85,8
250,467	-86,16
250,841	-90,57
251,216	-103,15
251,591	-124,86
251,965	-149,24
252,34	-169,19
252,714	-190,4
253,089	-205,42
253,463	-215,59
253,838	-212,78
254,212	-206,97
254,587	-197,17
254,961	-175,28
255,335	-149,33
255,71	-123,6
256,084	-96,51
256,458	-77,18
256,832	-65,56
257,206	-59,15
257,581	-55,71
257,955	-53,65
258,329	-51,68
258,703	-49,45
259,077	-47,4
259,451	-45,34
259,825	-44,26
260,199	-43,98
260,572	-43,08
260,946	-42,96
261,32	-42,26
261,694	-41,25
262,068	-40,73
262,441	-40,34
262,815	-40,19
263,189	-40,08
263,562	-40,84
263,936	-43,86
264,309	-48,23
264,683	-53,31
265,056	-55,94
265,43	-57,14
265,803	-57,82
266,176	-57,95
266,55	-58,17
266,923	-57,56
267,296	-56,52
267,67	-54,43
268,043	-52,11
268,416	-49,43
268,789	-46,43
269,162	-43,84
269,535	-41,71
269,908	-39,86
270,281	-38,56
270,654	-38,3
271,027	-38,66
271,4	-39,05
271,773	-38,96
272,146	-38,74
272,519	-38,4
272,891	-38,42
273,264	-38,54
273,637	-38
274,01	-37,34
274,382	-37,53
274,755	-37,85
275,127	-38,17
275,5	-38,39
275,872	-38,28
276,245	-38,41
276,617	-39,05
276,99	-39,7
277,362	-40,63
277,734	-41,36
278,107	-41,03
278,479	-40,3
278,851	-39,36
279,223	-38,28
279,596	-37,29
279,968	-36,94
280,34	-36,26
280,712	-35,59
281,084	-34,29
281,456	-32,86
281,828	-31,56
282,2	-29,52
282,572	-27,8
282,944	-26,51
283,315	-25,7
283,687	-25,22
284,059	-24,9
284,431	-24,51
284,802	-23,86
285,174	-23,29
285,546	-22,73
285,917	-22,24
286,289	-21,81
286,66	-21,49
287,032	-21,06
287,403	-20,7
287,775	-20,47
288,146	-20,62
288,518	-20,77
288,889	-20,8
289,26	-20,9
289,632	-21,32
290,003	-22,06
290,374	-22,5
290,745	-22,63
291,116	-22,59
291,487	-22,53
291,858	-22,35
292,229	-22,16
292,6	-21,78
292,971	-21,02
293,342	-20,34
293,713	-19,67
294,084	-18,91
294,455	-18,06
294,826	-17,56
295,196	-17,4
295,567	-17,45
295,938	-17,18
296,308	-16,92
296,679	-16,57
297,05	-16,24
297,42	-15,74
297,791	-15,1
298,161	-14,86
298,532	-14,63
298,902	-14,49
299,272	-14,28
299,643	-14,07
300,013	-13,7
300,383	-13,64
300,754	-13,84
301,124	-14,05
301,494	-14,28
301,864	-14,63
302,234	-15,13
302,604	-15,46
302,974	-15,51
303,344	-15,15
303,714	-14,82
304,084	-14,4
304,454	-14,23
304,824	-14,1
305,194	-14,09
305,563	-14,04
305,933	-13,72
306,303	-13,45
306,673	-12,98
307,042	-12,43
307,412	-11,86
307,781	-11,35
308,151	-10,95
308,521	-10,61
308,89	-10,29
309,259	-10,22
309,629	-10,07
309,998	-9,85
310,368	-9,67
310,737	-9,52
311,106	-9,47
311,475	-9,37
311,845	-9,34
312,214	-9,26
312,583	-9,16
312,952	-9,01
313,321	-8,88
313,69	-8,57
314,059	-8,35
314,428	-8,36
314,797	-8,48
315,166	-8,74
315,535	-9,06
315,904	-9,37
316,272	-9,64
316,641	-9,96
317,01	-10,06
317,379	-10,08
317,747	-9,92
318,116	-9,63
318,484	-9,32
318,853	-9,07
319,221	-8,9
319,59	-8,86
319,958	-8,79
320,327	-8,72
320,695	-8,63
321,063	-8,47
321,432	-8,41
321,8	-8,11
322,168	-7,86
322,536	-7,7
322,905	-7,25
323,273	-6,81
323,641	-6,37
324,009	-5,89
324,377	-5,43
324,745	-4,99
325,113	-4,62
325,481	-4,32
325,849	-4,14
326,216	-4,07
326,584	-3,84
326,952	-3,61
327,32	-3,31
327,687	-2,99
328,055	-2,61
328,423	-2,4
328,79	-2,38
329,158	-2,36
329,525	-2,34
329,893	-2,22
330,26	-2,06
330,628	-2,07
330,995	-2,03
331,362	-2,05
331,73	-2,08
332,097	-2,07
332,464	-1,98
332,831	-1,85
333,199	-1,86
333,566	-1,83
333,933	-1,65
334,3	-1,53
334,667	-1,47
335,034	-1,41
335,401	-1,48
335,768	-1,55
336,135	-1,49
336,502	-1,29
336,868	-1,11
337,235	-1,03
337,602	-0,96
337,969	-0,79
338,335	-0,58
338,702	-0,36
339,069	-0,18
339,435	-0,09
339,802	0,06
340,168	0,17
340,535	0,29
340,901	0,35
341,267	0,38
341,634	0,44
342	0,52
342,366	0,65
342,733	0,76
343,099	0,97
343,465	1,06
343,831	1,12
344,197	1,17
344,563	1,19
344,929	1,22
345,295	1,3
345,661	1,31
346,027	1,32
346,393	1,23
346,759	1,19
347,125	1,25
347,491	1,31
347,856	1,29
348,222	1,22
348,588	1,35
348,953	1,51
349,319	1,54
349,684	1,58
350,05	1,6
350,415	1,69
350,781	1,79
351,146	2
351,512	2,17
351,877	2,27
352,242	2,34
352,608	2,45
352,973	2,54
353,338	2,66
353,703	2,81
354,068	2,95
354,433	3,09
354,798	3,23
355,164	3,35
355,528	3,49
355,893	3,6
356,258	3,64
356,623	3,73
356,988	3,85
357,353	3,93
357,718	4,06
358,082	4,11
358,447	4,15
358,812	4,23
359,176	4,31
359,541	4,43
359,905	4,54
360,27	4,6
360,634	4,68
360,999	4,79
361,363	4,83
361,728	4,9
362,092	4,96
362,456	4,98
362,821	5,03
363,185	5,11
363,549	5,23
363,913	5,32
364,277	5,39
364,641	5,42
365,005	5,52
365,369	5,6
365,733	5,71
366,097	5,82
366,461	5,87
366,825	5,92
367,189	5,93
367,553	6,06
367,916	6,21
368,28	6,31
368,644	6,38
369,007	6,51
369,371	6,68
369,734	6,79
370,098	6,91
370,461	7
370,825	7,06
371,188	7,13
371,552	7,2
371,915	7,24
372,278	7,38
372,642	7,48
373,005	7,59
373,368	7,71
373,731	7,76
374,094	7,8
374,457	7,89
374,82	8,07
375,183	8,13
375,546	8,19
375,909	8,27
376,272	8,37
376,635	8,44
376,998	8,47
377,361	8,56
377,723	8,65
378,086	8,74
378,449	8,82
378,811	8,88
379,174	8,97
379,537	9,07
379,899	9,13
380,262	9,16
380,624	9,16
380,987	9,17
381,349	9,24
381,711	9,35
382,074	9,45
382,436	9,52
382,798	9,66
383,16	9,71
383,522	9,76
383,884	9,79
384,247	9,85
384,609	9,92
384,971	9,95
385,333	9,99
385,695	10,01
386,056	10,04
386,418	10,06
386,78	10,08
387,142	10,11
387,504	10,16
387,865	10,21
388,227	10,24
388,589	10,29
388,95	10,3
389,312	10,31
389,673	10,32
390,035	10,31
390,396	10,3
390,758	10,33
391,119	10,34
391,48	10,36
391,842	10,36
392,203	10,36
392,564	10,36
392,925	10,4
393,286	10,44
393,648	10,49
394,009	10,55
394,37	10,57
394,731	10,61
395,092	10,65
395,452	10,66
395,813	10,72
396,174	10,74
396,535	10,77
396,896	10,79
397,257	10,82
397,617	10,84
397,978	10,83
398,338	10,84
398,699	10,89
399,06	10,97
399,42	11
399,781	11,03
400,141	11,11
400,501	11,09
400,862	11,11
401,222	11,13
401,582	11,12
401,943	11,16
402,303	11,15
402,663	11,16
403,023	11,18
403,383	11,21
403,743	11,23
404,103	11,27
404,463	11,31
404,823	11,33
405,183	11,35
405,543	11,4
405,903	11,42
406,262	11,41
406,622	11,34
406,982	11,36
407,342	11,38
407,701	11,38
408,061	11,43
408,42	11,46
408,78	11,5
409,139	11,52
409,499	11,5
409,858	11,52
410,217	11,57
410,577	11,55
410,936	11,51
411,295	11,5
411,655	11,48
412,014	11,46
412,373	11,44
412,732	11,41
413,091	11,38
413,45	11,38
413,809	11,37
414,168	11,36
414,527	11,33
414,886	11,31
415,245	11,27
415,603	11,25
415,962	11,2
416,321	11,15
416,679	11,11
417,038	11,1
417,397	11,07
417,755	11,02
418,114	11,01
418,472	10,99
418,831	10,98
419,189	10,99
419,547	10,99
419,906	10,99
420,264	10,97
420,622	10,94
420,981	10,94
421,339	10,95
421,697	10,95
422,055	10,97
422,413	10,97
422,771	11,01
423,129	11,03
423,487	11,05
423,845	11,06
424,203	11,09
424,56	11,12
424,918	11,16
425,276	11,2
425,634	11,24
425,991	11,26
426,349	11,31
426,707	11,33
427,064	11,36
427,422	11,39
427,779	11,44
428,137	11,51
428,494	11,53
428,851	11,56
429,209	11,59
429,566	11,59
429,923	11,58
430,28	11,57
430,637	11,59
430,995	11,59
431,352	11,59
431,709	11,58
432,066	11,59
432,423	11,59
432,78	11,58
433,137	11,59
433,493	11,59
433,85	11,62
434,207	11,61
434,564	11,6
434,92	11,6
435,277	11,61
435,634	11,62
435,99	11,62
436,347	11,59
436,703	11,59
437,06	11,59
437,416	11,6
437,773	11,57
438,129	11,56
438,485	11,57
438,841	11,56
439,198	11,55
439,554	11,55
439,91	11,57
440,266	11,58
440,622	11,58
440,978	11,6
441,334	11,57
441,69	11,55
442,046	11,55
442,402	11,51
442,758	11,51
443,113	11,49
443,469	11,49
443,825	11,51
444,181	11,51
444,536	11,53
444,892	11,55
445,247	11,56
445,603	11,57
445,958	11,57
446,314	11,58
446,669	11,59
447,025	11,59
447,38	11,59
447,735	11,6
448,09	11,6
448,446	11,6
448,801	11,59
449,156	11,63
449,511	11,65
449,866	11,69
450,221	11,71
450,576	11,76
450,931	11,8
451,286	11,82
451,641	11,87
451,995	11,89
452,35	11,9
452,705	11,93
453,06	11,95
453,414	11,96
453,769	11,99
454,123	12,01
454,478	12,02
454,832	12,02
455,187	12
455,541	11,99
455,896	11,99
456,25	12
456,604	11,98
456,958	11,95
457,313	11,95
457,667	11,94
458,021	11,93
458,375	11,94
458,729	11,96
459,083	11,97
459,437	11,97
459,791	11,96
460,145	11,97
460,499	11,97
460,852	11,95
461,206	11,95
461,56	11,94
461,914	11,95
462,267	11,94
462,621	11,98
462,974	11,99
463,328	12,02
463,681	12,03
464,035	12,06
464,388	12,11
464,742	12,12
465,095	12,14
465,448	12,16
465,801	12,15
466,155	12,14
466,508	12,11
466,861	12,1
467,214	12,1
467,567	12,08
467,92	12,07
468,273	12,08
468,626	12,07
468,979	12,07
469,332	12,09
469,684	12,09
470,037	12,09
470,39	12,11
470,743	12,11
471,095	12,13
471,448	12,14
471,8	12,13
472,153	12,15
472,505	12,16
472,858	12,16
473,21	12,17
473,562	12,19
473,915	12,21
474,267	12,21
474,619	12,23
474,971	12,24
475,324	12,25
475,676	12,27
476,028	12,27
476,38	12,29
476,732	12,28
477,084	12,29
477,436	12,29
477,787	12,25
478,139	12,25
478,491	12,24
478,843	12,23
479,195	12,22
479,546	12,17
479,898	12,12
480,249	12,09
480,601	12,09
480,952	12,07
481,304	12,06
481,655	12,07
482,007	12,08
482,358	12,07
482,709	12,06
483,061	12,05
483,412	12,05
483,763	12,03
484,114	12,03
484,465	12,02
484,816	12,02
485,167	12,02
485,518	12,02
485,869	12,02
486,22	12,02
486,571	12,02
486,922	12,04
487,272	12,05
487,623	12,05
487,974	12,05
488,324	12,04
488,675	12,04
489,025	12,04
489,376	12,03
489,726	12,03
490,077	12,05
490,427	12,06
490,778	12,07
491,128	12,09
491,478	12,09
491,828	12,11
492,179	12,12
492,529	12,15
492,879	12,16
493,229	12,19
493,579	12,21
493,929	12,22
494,279	12,22
494,629	12,24
494,979	12,28
495,328	12,32
495,678	12,36
496,028	12,41
496,378	12,43
496,727	12,45
497,077	12,48
497,426	12,5
497,776	12,5
498,125	12,49
498,475	12,5
498,824	12,51
499,174	12,51
499,523	12,52
499,872	12,53
500,221	12,54
500,571	12,53
500,92	12,52
501,269	12,53
501,618	12,53
501,967	12,53
502,316	12,51
502,665	12,5
503,014	12,51
503,363	12,5
503,711	12,5
504,06	12,5
504,409	12,49
504,758	12,48
505,106	12,48
505,455	12,49
505,803	12,5
506,152	12,49
506,5	12,5
506,849	12,49
507,197	12,49
507,546	12,49
507,894	12,51
508,242	12,53
508,59	12,51
508,939	12,51
509,287	12,53
509,635	12,54
509,983	12,55
510,331	12,56
510,679	12,56
511,027	12,57
511,375	12,6
511,723	12,61
512,07	12,63
512,418	12,65
512,766	12,65
513,114	12,66
513,461	12,68
513,809	12,7
514,156	12,7
514,504	12,7
514,851	12,71
515,199	12,69
515,546	12,67
515,893	12,66
516,241	12,66
516,588	12,65
516,935	12,67
517,282	12,67
517,63	12,68
517,977	12,68
518,324	12,69
518,671	12,68
519,018	12,69
519,365	12,68
519,711	12,7
520,058	12,72
520,405	12,73
520,752	12,74
521,099	12,73
521,445	12,76
521,792	12,77
522,138	12,79
522,485	12,8
522,832	12,79
523,178	12,8
523,524	12,81
523,871	12,79
524,217	12,79
524,563	12,78
524,91	12,75
525,256	12,74
525,602	12,73
525,948	12,71
526,294	12,72
526,64	12,72
526,986	12,69
527,332	12,68
527,678	12,67
528,024	12,66
528,37	12,68
528,716	12,67
529,061	12,67
529,407	12,65
529,753	12,65
530,098	12,65
530,444	12,66
530,789	12,67
531,135	12,68
531,48	12,67
531,826	12,67
532,171	12,68
532,516	12,69
532,862	12,7
533,207	12,71
533,552	12,7
533,897	12,71
534,242	12,72
534,587	12,72
534,932	12,74
535,277	12,75
535,622	12,75
535,967	12,76
536,312	12,76
536,657	12,78
537,001	12,81
537,346	12,82
537,691	12,81
538,035	12,8
538,38	12,81
538,724	12,83
539,069	12,83
539,413	12,84
539,758	12,84
540,102	12,84
540,446	12,84
540,791	12,85
541,135	12,85
541,479	12,86
541,823	12,87
542,167	12,87
542,512	12,87
542,856	12,85
543,2	12,84
543,543	12,84
543,887	12,84
544,231	12,84
544,575	12,84
544,919	12,85
545,262	12,88
545,606	12,9
545,95	12,89
546,293	12,89
546,637	12,88
546,98	12,87
547,324	12,88
547,667	12,91
548,011	12,91
548,354	12,92
548,697	12,9
549,04	12,9
549,384	12,89
549,727	12,87
550,07	12,89
550,413	12,87
550,756	12,87
551,099	12,87
551,442	12,86
551,785	12,88
552,128	12,89
552,47	12,85
552,813	12,84
553,156	12,86
553,499	12,85
553,841	12,88
554,184	12,89
554,526	12,88
554,869	12,85
555,211	12,84
555,554	12,83
555,896	12,82
556,238	12,78
556,581	12,75
556,923	12,74
557,265	12,71
557,607	12,71
557,949	12,7
558,291	12,66
558,633	12,62
558,975	12,57
559,317	12,56
559,659	12,53
560,001	12,51
560,343	12,5
560,685	12,5
561,026	12,47
561,368	12,46
561,71	12,44
562,051	12,41
562,393	12,41
562,734	12,4
563,076	12,41
563,417	12,41
563,759	12,41
564,1	12,41
564,441	12,43
564,782	12,41
565,124	12,38
565,465	12,41
565,806	12,42
566,147	12,4
566,488	12,39
566,829	12,37
567,17	12,37
567,511	12,34
567,851	12,32
568,192	12,3
568,533	12,27
568,874	12,28
569,214	12,29
569,555	12,26
569,895	12,25
570,236	12,2
570,576	12,19
570,917	12,17
571,257	12,12
571,598	12,09
571,938	12,12
572,278	12,12
572,618	12,09
572,959	12,09
573,299	12,1
573,639	12,09
573,979	12,09
574,319	12,07
574,659	12,06
574,999	12,02
575,339	12,01
575,678	11,98
576,018	11,92
576,358	11,89
576,698	11,86
577,037	11,86
577,377	11,85
577,716	11,82
578,056	11,81
578,395	11,81
578,735	11,79
579,074	11,74
579,413	11,71
579,753	11,66
580,092	11,6
580,431	11,54
580,77	11,52
581,109	11,47
581,448	11,44
581,787	11,42
582,126	11,42
582,465	11,4
582,804	11,4
583,143	11,39
583,482	11,38
583,82	11,38
584,159	11,34
584,498	11,34
584,836	11,34
585,175	11,33
585,514	11,32
585,852	11,32
586,19	11,3
586,529	11,28
586,867	11,31
587,205	11,34
587,544	11,35
587,882	11,34
588,22	11,39
588,558	11,39
588,896	11,37
589,234	11,36
589,572	11,35
589,91	11,35
590,248	11,33
590,586	11,3
590,924	11,3
591,262	11,29
591,599	11,26
591,937	11,24
592,275	11,23
592,612	11,24
592,95	11,24
593,287	11,28
593,625	11,32
593,962	11,32
594,299	11,36
594,637	11,43
594,974	11,44
595,311	11,45
595,648	11,48
595,985	11,5
596,322	11,51
596,659	11,52
596,996	11,54
597,333	11,56
597,67	11,58
598,007	11,59
598,344	11,6
598,681	11,64
599,017	11,65
599,354	11,64
599,691	11,66
600,027	11,68
600,364	11,7
600,7	11,72
601,037	11,73
601,373	11,74
601,71	11,71
602,046	11,74
602,382	11,73
602,718	11,75
603,054	11,76
603,391	11,77
603,727	11,76
604,063	11,77
604,399	11,79
604,735	11,8
605,071	11,81
605,406	11,81
605,742	11,81
606,078	11,84
606,414	11,86
606,749	11,87
607,085	11,86
607,421	11,84
607,756	11,81
608,092	11,79
608,427	11,75
608,762	11,73
609,098	11,71
609,433	11,68
609,768	11,66
610,104	11,64
610,439	11,61
610,774	11,62
611,109	11,6
611,444	11,57
611,779	11,55
612,114	11,53
612,449	11,54
612,784	11,51
613,118	11,45
613,453	11,41
613,788	11,35
614,123	11,31
614,457	11,27
614,792	11,21
615,126	11,24
615,461	11,23
615,795	11,21
616,13	11,16
616,464	11,16
616,798	11,11
617,132	11,09
617,467	11,1
617,801	11,08
618,135	11,05
618,469	11,09
618,803	11,09
619,137	11,11
619,471	11,09
619,805	11,08
620,139	11,1
620,472	11,12
620,806	11,13
621,14	11,12
621,473	11,11
621,807	11,12
622,141	11,07
622,474	11,03
622,808	11,06
623,141	11,12
623,474	11,17
623,808	11,23
624,141	11,28
624,474	11,33
624,807	11,36
625,141	11,39
625,474	11,4
625,807	11,42
626,14	11,4
626,473	11,42
626,806	11,44
627,138	11,45
627,471	11,46
627,804	11,47
628,137	11,49
628,469	11,51
628,802	11,51
629,135	11,54
629,467	11,56
629,8	11,55
630,132	11,56
630,465	11,57
630,797	11,57
631,129	11,54
631,461	11,52
631,794	11,5
632,126	11,47
632,458	11,45
632,79	11,47
633,122	11,51
633,454	11,47
633,786	11,47
634,118	11,45
634,45	11,46
634,781	11,44
635,113	11,43
635,445	11,41
635,777	11,43
636,108	11,41
636,44	11,42
636,771	11,38
637,103	11,35
637,434	11,33
637,765	11,32
638,097	11,31
638,428	11,3
638,759	11,26
639,09	11,23
639,422	11,22
639,753	11,18
640,084	11,17
640,415	11,18
640,746	11,16
641,077	11,21
641,407	11,18
641,738	11,18
642,069	11,2
642,4	11,24
642,73	11,24
643,061	11,26
643,392	11,23
643,722	11,27
644,053	11,31
644,383	11,28
644,713	11,28
645,044	11,28
645,374	11,28
645,704	11,32
