Data from zc74010_3_Reflection_00003.txt Node
Date: Thu Mar 12 15:00:41 ART 2020
User: Ana
Spectrometer: USB2E3644
Trigger mode: 4
Integration Time (sec): 5,000000E-2
Scans to average: 10
Electric dark correction enabled: true
Nonlinearity correction enabled: false
Boxcar width: 10
XAxis mode: Wavelengths
Number of Pixels in Spectrum: 2048
>>>>>Begin Spectral Data<<<<<
178,315	111,65
178,696	108,14
179,076	106,15
179,457	101,85
179,838	128,57
180,218	193,33
180,599	1100
180,979	93,55
181,36	275
181,74	161,11
182,121	115
182,501	101,97
182,881	93,58
183,262	93,36
183,642	95,02
184,022	93,58
184,402	92,38
184,783	94,01
185,163	94,59
185,543	96,14
185,923	93,43
186,303	90,65
186,683	88,24
187,063	88,69
187,443	91,4
187,823	95,43
188,203	97,31
188,583	98,25
188,963	97,73
189,343	98,24
189,723	100,19
190,102	105,13
190,482	111,88
190,862	116,35
191,242	119,63
191,621	121,04
192,001	123,1
192,38	125,34
192,76	125,29
193,14	126,55
193,519	126,75
193,898	128,19
194,278	130,5
194,657	133,18
195,037	132,84
195,416	128,31
195,795	124,97
196,175	123,53
196,554	122,82
196,933	122,33
197,312	121,87
197,692	121,11
198,071	120,09
198,45	119,84
198,829	121,04
199,208	122,42
199,587	123,27
199,966	123,1
200,345	121,31
200,724	120,9
201,103	120,94
201,482	121,4
201,86	122,16
202,239	120,67
202,618	119,46
202,997	120,28
203,375	122,2
203,754	123,51
204,133	124,39
204,511	124,17
204,89	123,8
205,269	124,14
205,647	124
206,026	123,24
206,404	122,39
206,782	120,71
207,161	119,55
207,539	118,54
207,918	119,37
208,296	121,79
208,674	123,02
209,052	123,81
209,431	124,85
209,809	125,2
210,187	125,57
210,565	125,36
210,943	124,66
211,321	124,69
211,699	126,28
212,077	127,84
212,455	128,9
212,833	129,87
213,211	129,46
213,589	129,9
213,967	130,06
214,345	129,9
214,722	130,98
215,1	131,75
215,478	132,59
215,855	132,36
216,233	131,97
216,611	132,25
216,988	131,9
217,366	130,85
217,743	131,47
218,121	133,14
218,498	134,7
218,876	134,04
219,253	132,68
219,631	130,64
220,008	128,31
220,385	127,33
220,762	126,4
221,14	125,39
221,517	124,2
221,894	123,84
222,271	122,72
222,648	121,62
223,025	120,42
223,402	119,89
223,78	120,25
224,157	121,02
224,533	121,06
224,91	121,83
225,287	123,82
225,664	124,78
226,041	125,19
226,418	125,92
226,795	127,73
227,171	129,2
227,548	131,76
227,925	134,66
228,301	137,01
228,678	139,15
229,055	142,06
229,431	144,57
229,808	146,64
230,184	148,45
230,561	150,67
230,937	152,92
231,313	154,07
231,69	154,18
232,066	154,11
232,442	154,34
232,819	153,69
233,195	151,62
233,571	150,95
233,947	152
234,323	152,76
234,699	153,11
235,075	154,33
235,451	155,51
235,827	157,03
236,203	157,16
236,579	157,91
236,955	160,75
237,331	167,7
237,707	177,86
238,083	191,05
238,459	207,39
238,834	235,07
239,21	279,22
239,586	337,95
239,961	402,63
240,337	473,85
240,713	541,05
241,088	619,9
241,464	713,71
241,839	838,67
242,215	1116,67
242,59	2624,49
242,965	-1612,5
243,341	-459,01
243,716	-247,22
244,091	-178,02
244,467	-148,36
244,842	-131,54
245,217	-119,42
245,592	-113,52
245,967	-112,62
246,343	-109,54
246,718	-107,11
247,093	-109,26
247,468	-111,99
247,843	-112,3
248,218	-108,5
248,593	-101,31
248,967	-93,25
249,342	-89,26
249,717	-87,62
250,092	-86,77
250,467	-88,47
250,841	-94,64
251,216	-108,42
251,591	-131,16
251,965	-156,88
252,34	-177,12
252,714	-197,22
253,089	-212,46
253,463	-222,81
253,838	-220,83
254,212	-214,95
254,587	-203,49
254,961	-179,86
255,335	-153,4
255,71	-126,19
256,084	-97,56
256,458	-77,16
256,832	-65,55
257,206	-59,09
257,581	-55,65
257,955	-53,34
258,329	-50,75
258,703	-48,07
259,077	-45,6
259,451	-43,53
259,825	-42,45
260,199	-42,17
260,572	-41,65
260,946	-41,89
261,32	-41,58
261,694	-40,96
262,068	-40,62
262,441	-40,33
262,815	-40,22
263,189	-39,9
263,562	-40,45
263,936	-43,19
264,309	-47,55
264,683	-52,21
265,056	-54,46
265,43	-55,15
265,803	-55,08
266,176	-54,75
266,55	-54,51
266,923	-53,81
267,296	-52,61
267,67	-50,68
268,043	-48,67
268,416	-45,83
268,789	-42,72
269,162	-40,09
269,535	-37,88
269,908	-36,18
270,281	-35,18
270,654	-35,25
271,027	-35,95
271,4	-36,57
271,773	-36,8
272,146	-37,06
272,519	-37,18
272,891	-37,33
273,264	-37,46
273,637	-37,5
274,01	-37,36
274,382	-37,84
274,755	-38,22
275,127	-38,74
275,5	-39,16
275,872	-39,25
276,245	-39,72
276,617	-40,41
276,99	-40,85
277,362	-41,59
277,734	-42,13
278,107	-41,75
278,479	-40,99
278,851	-40,17
279,223	-39,57
279,596	-38,82
279,968	-37,93
280,34	-36,78
280,712	-35,8
281,084	-34,37
281,456	-32,62
281,828	-31
282,2	-28,85
282,572	-27,06
282,944	-25,78
283,315	-24,97
283,687	-24,32
284,059	-23,93
284,431	-23,75
284,802	-23,42
285,174	-23,12
285,546	-22,69
285,917	-22,11
286,289	-21,46
286,66	-20,96
287,032	-20,28
287,403	-19,83
287,775	-19,61
288,146	-19,66
288,518	-19,69
288,889	-19,59
289,26	-19,65
289,632	-20,03
290,003	-20,58
290,374	-20,98
290,745	-21,21
291,116	-21,3
291,487	-21,41
291,858	-21,41
292,229	-21,23
292,6	-20,88
292,971	-20,08
293,342	-19,33
293,713	-18,71
294,084	-18,22
294,455	-17,52
294,826	-17,1
295,196	-17,09
295,567	-17,38
295,938	-17,35
296,308	-17,28
296,679	-17,26
297,05	-17,19
297,42	-16,87
297,791	-16,51
298,161	-16,46
298,532	-16,2
298,902	-15,85
299,272	-15,56
299,643	-15,3
300,013	-14,97
300,383	-14,83
300,754	-15,02
301,124	-15,37
301,494	-15,87
301,864	-16,41
302,234	-16,99
302,604	-17,36
302,974	-17,38
303,344	-16,99
303,714	-16,71
304,084	-16,39
304,454	-16,24
304,824	-16,26
305,194	-16,39
305,563	-16,37
305,933	-15,93
306,303	-15,37
306,673	-14,78
307,042	-14,21
307,412	-13,42
307,781	-12,69
308,151	-12,23
308,521	-11,88
308,89	-11,51
309,259	-11,35
309,629	-11,15
309,998	-11,04
310,368	-10,97
310,737	-10,81
311,106	-10,77
311,475	-10,69
311,845	-10,76
312,214	-10,68
312,583	-10,5
312,952	-10,4
313,321	-10,3
313,69	-10,18
314,059	-10,33
314,428	-10,63
314,797	-10,89
315,166	-11,41
315,535	-12,06
315,904	-12,51
316,272	-12,81
316,641	-13,04
317,01	-12,96
317,379	-12,88
317,747	-12,65
318,116	-12,34
318,484	-12,16
318,853	-11,99
319,221	-11,82
319,59	-11,68
319,958	-11,43
320,327	-11,23
320,695	-10,92
321,063	-10,55
321,432	-10,27
321,8	-9,79
322,168	-9,39
322,536	-9,22
322,905	-8,73
323,273	-8,22
323,641	-7,89
324,009	-7,56
324,377	-7,29
324,745	-7,02
325,113	-6,65
325,481	-6,33
325,849	-6,12
326,216	-5,93
326,584	-5,68
326,952	-5,51
327,32	-5,19
327,687	-4,98
328,055	-4,79
328,423	-4,73
328,79	-4,89
329,158	-5,1
329,525	-5,37
329,893	-5,46
330,26	-5,36
330,628	-5,4
330,995	-5,37
331,362	-5,33
331,73	-5,35
332,097	-5,29
332,464	-5,2
332,831	-5,09
333,199	-5,07
333,566	-5,03
333,933	-4,87
334,3	-4,73
334,667	-4,62
335,034	-4,61
335,401	-4,63
335,768	-4,57
336,135	-4,42
336,502	-4,24
336,868	-4,04
337,235	-3,83
337,602	-3,63
337,969	-3,4
338,335	-3,23
338,702	-3,12
339,069	-2,98
339,435	-2,87
339,802	-2,75
340,168	-2,69
340,535	-2,61
340,901	-2,61
341,267	-2,57
341,634	-2,49
342	-2,38
342,366	-2,22
342,733	-2,12
343,099	-1,97
343,465	-1,89
343,831	-1,84
344,197	-1,77
344,563	-1,74
344,929	-1,68
345,295	-1,6
345,661	-1,58
346,027	-1,52
346,393	-1,43
346,759	-1,35
347,125	-1,28
347,491	-1,23
347,856	-1,2
348,222	-1,27
348,588	-1,11
348,953	-0,97
349,319	-0,94
349,684	-0,9
350,05	-0,93
350,415	-0,89
350,781	-0,83
351,146	-0,74
351,512	-0,65
351,877	-0,6
352,242	-0,52
352,608	-0,44
352,973	-0,38
353,338	-0,3
353,703	-0,21
354,068	-0,19
354,433	-0,12
354,798	0,01
355,164	0,14
355,528	0,29
355,893	0,38
356,258	0,41
356,623	0,5
356,988	0,6
357,353	0,66
357,718	0,74
358,082	0,8
358,447	0,86
358,812	0,96
359,176	1,04
359,541	1,18
359,905	1,29
360,27	1,37
360,634	1,41
360,999	1,45
361,363	1,47
361,728	1,52
362,092	1,57
362,456	1,59
362,821	1,65
363,185	1,7
363,549	1,79
363,913	1,84
364,277	1,85
364,641	1,89
365,005	2,01
365,369	2,12
365,733	2,24
366,097	2,33
366,461	2,38
366,825	2,46
367,189	2,51
367,553	2,57
367,916	2,66
368,28	2,81
368,644	2,95
369,007	3,08
369,371	3,19
369,734	3,3
370,098	3,38
370,461	3,41
370,825	3,46
371,188	3,56
371,552	3,66
371,915	3,74
372,278	3,85
372,642	3,91
373,005	3,97
373,368	4,09
373,731	4,21
374,094	4,33
374,457	4,39
374,82	4,49
375,183	4,57
375,546	4,66
375,909	4,71
376,272	4,81
376,635	4,96
376,998	5,06
377,361	5,14
377,723	5,23
378,086	5,31
378,449	5,38
378,811	5,41
379,174	5,49
379,537	5,56
379,899	5,59
380,262	5,61
380,624	5,66
380,987	5,68
381,349	5,69
381,711	5,7
382,074	5,77
382,436	5,82
382,798	5,89
383,16	5,92
383,522	5,96
383,884	5,95
384,247	5,9
384,609	5,92
384,971	5,89
385,333	5,87
385,695	5,87
386,056	5,89
386,418	5,92
386,78	5,95
387,142	5,97
387,504	6,01
387,865	6,07
388,227	6,06
388,589	6,08
388,95	6,12
389,312	6,15
389,673	6,14
390,035	6,15
390,396	6,17
390,758	6,19
391,119	6,19
391,48	6,21
391,842	6,24
392,203	6,25
392,564	6,3
392,925	6,37
393,286	6,4
393,648	6,42
394,009	6,45
394,37	6,44
394,731	6,47
395,092	6,46
395,452	6,47
395,813	6,51
396,174	6,53
396,535	6,52
396,896	6,51
397,257	6,54
397,617	6,58
397,978	6,59
398,338	6,62
398,699	6,65
399,06	6,71
399,42	6,72
399,781	6,75
400,141	6,77
400,501	6,76
400,862	6,79
401,222	6,8
401,582	6,81
401,943	6,86
402,303	6,88
402,663	6,93
403,023	6,94
403,383	6,96
403,743	6,98
404,103	7,01
404,463	7,06
404,823	7,11
405,183	7,12
405,543	7,15
405,903	7,14
406,262	7,14
406,622	7,11
406,982	7,13
407,342	7,13
407,701	7,13
408,061	7,16
408,42	7,17
408,78	7,2
409,139	7,21
409,499	7,21
409,858	7,23
410,217	7,26
410,577	7,28
410,936	7,28
411,295	7,27
411,655	7,26
412,014	7,23
412,373	7,18
412,732	7,13
413,091	7,07
413,45	7,04
413,809	7
414,168	6,94
414,527	6,9
414,886	6,85
415,245	6,81
415,603	6,75
415,962	6,69
416,321	6,66
416,679	6,61
417,038	6,54
417,397	6,47
417,755	6,41
418,114	6,37
418,472	6,34
418,831	6,33
419,189	6,32
419,547	6,31
419,906	6,28
420,264	6,27
420,622	6,26
420,981	6,25
421,339	6,25
421,697	6,25
422,055	6,26
422,413	6,27
422,771	6,29
423,129	6,32
423,487	6,35
423,845	6,37
424,203	6,4
424,56	6,44
424,918	6,47
425,276	6,51
425,634	6,55
425,991	6,57
426,349	6,6
426,707	6,62
427,064	6,66
427,422	6,7
427,779	6,75
428,137	6,82
428,494	6,87
428,851	6,89
429,209	6,91
429,566	6,88
429,923	6,86
430,28	6,85
430,637	6,83
430,995	6,81
431,352	6,79
431,709	6,8
432,066	6,82
432,423	6,84
432,78	6,84
433,137	6,83
433,493	6,81
433,85	6,82
434,207	6,81
434,564	6,79
434,92	6,78
435,277	6,77
435,634	6,75
435,99	6,71
436,347	6,7
436,703	6,7
437,06	6,71
437,416	6,71
437,773	6,69
438,129	6,68
438,485	6,69
438,841	6,69
439,198	6,68
439,554	6,66
439,91	6,66
440,266	6,65
440,622	6,65
440,978	6,66
441,334	6,61
441,69	6,58
442,046	6,55
442,402	6,54
442,758	6,51
443,113	6,5
443,469	6,51
443,825	6,51
444,181	6,51
444,536	6,53
444,892	6,56
445,247	6,58
445,603	6,59
445,958	6,6
446,314	6,6
446,669	6,61
447,025	6,61
447,38	6,62
447,735	6,63
448,09	6,64
448,446	6,64
448,801	6,66
449,156	6,71
449,511	6,75
449,866	6,79
450,221	6,85
450,576	6,89
450,931	6,95
451,286	6,97
451,641	7,01
451,995	7,03
452,35	7,04
452,705	7,05
453,06	7,05
453,414	7,06
453,769	7,07
454,123	7,07
454,478	7,07
454,832	7,07
455,187	7,02
455,541	6,99
455,896	6,95
456,25	6,93
456,604	6,89
456,958	6,88
457,313	6,85
457,667	6,84
458,021	6,84
458,375	6,85
458,729	6,86
459,083	6,86
459,437	6,86
459,791	6,86
460,145	6,87
460,499	6,86
460,852	6,84
461,206	6,83
461,56	6,83
461,914	6,84
462,267	6,84
462,621	6,85
462,974	6,89
463,328	6,91
463,681	6,93
464,035	6,98
464,388	6,99
464,742	7,01
465,095	7,01
465,448	7,01
465,801	6,99
466,155	6,97
466,508	6,94
466,861	6,93
467,214	6,91
467,567	6,9
467,92	6,91
468,273	6,92
468,626	6,92
468,979	6,92
469,332	6,91
469,684	6,91
470,037	6,92
470,39	6,92
470,743	6,95
471,095	6,95
471,448	6,94
471,8	6,94
472,153	6,94
472,505	6,95
472,858	6,94
473,21	6,95
473,562	6,96
473,915	6,99
474,267	6,99
474,619	6,99
474,971	6,98
475,324	6,96
475,676	6,99
476,028	7
476,38	6,99
476,732	7,01
477,084	7,01
477,436	7
477,787	6,99
478,139	6,97
478,491	6,97
478,843	6,94
479,195	6,92
479,546	6,86
479,898	6,8
480,249	6,7
480,601	6,62
480,952	6,59
481,304	6,59
481,655	6,6
482,007	6,6
482,358	6,62
482,709	6,62
483,061	6,6
483,412	6,59
483,763	6,59
484,114	6,58
484,465	6,56
484,816	6,54
485,167	6,54
485,518	6,54
485,869	6,55
486,22	6,57
486,571	6,58
486,922	6,59
487,272	6,6
487,623	6,64
487,974	6,67
488,324	6,67
488,675	6,66
489,025	6,66
489,376	6,67
489,726	6,66
490,077	6,68
490,427	6,69
490,778	6,72
491,128	6,73
491,478	6,76
491,828	6,79
492,179	6,83
492,529	6,85
492,879	6,85
493,229	6,86
493,579	6,85
493,929	6,85
494,279	6,88
494,629	6,89
494,979	6,91
495,328	6,97
495,678	7,02
496,028	7,07
496,378	7,09
496,727	7,09
497,077	7,11
497,426	7,11
497,776	7,07
498,125	7,05
498,475	7,05
498,824	7,04
499,174	7,04
499,523	7,05
499,872	7,06
500,221	7,08
500,571	7,07
500,92	7,08
501,269	7,1
501,618	7,07
501,967	7,08
502,316	7,09
502,665	7,09
503,014	7,1
503,363	7,09
503,711	7,09
504,06	7,08
504,409	7,06
504,758	7,04
505,106	7,05
505,455	7,06
505,803	7,08
506,152	7,08
506,5	7,08
506,849	7,08
507,197	7,07
507,546	7,08
507,894	7,09
508,242	7,09
508,59	7,07
508,939	7,06
509,287	7,06
509,635	7,07
509,983	7,07
510,331	7,07
510,679	7,09
511,027	7,09
511,375	7,1
511,723	7,12
512,07	7,12
512,418	7,14
512,766	7,14
513,114	7,14
513,461	7,14
513,809	7,14
514,156	7,13
514,504	7,11
514,851	7,09
515,199	7,07
515,546	7,05
515,893	7,05
516,241	7,08
516,588	7,09
516,935	7,1
517,282	7,11
517,63	7,11
517,977	7,11
518,324	7,12
518,671	7,11
519,018	7,12
519,365	7,13
519,711	7,13
520,058	7,13
520,405	7,14
520,752	7,14
521,099	7,15
521,445	7,17
521,792	7,17
522,138	7,18
522,485	7,2
522,832	7,2
523,178	7,21
523,524	7,2
523,871	7,2
524,217	7,19
524,563	7,14
524,91	7,09
525,256	7,01
525,602	6,99
525,948	7
526,294	7
526,64	7
526,986	7
527,332	7
527,678	7,01
528,024	7,01
528,37	7,03
528,716	7,03
529,061	7,03
529,407	7,02
529,753	7,01
530,098	7
530,444	6,99
530,789	6,98
531,135	6,98
531,48	6,98
531,826	7,01
532,171	7,05
532,516	7,09
532,862	7,11
533,207	7,11
533,552	7,1
533,897	7,11
534,242	7,11
534,587	7,11
534,932	7,11
535,277	7,12
535,622	7,11
535,967	7,12
536,312	7,13
536,657	7,15
537,001	7,16
537,346	7,16
537,691	7,14
538,035	7,12
538,38	7,1
538,724	7,09
539,069	7,09
539,413	7,09
539,758	7,08
540,102	7,1
540,446	7,1
540,791	7,11
541,135	7,12
541,479	7,13
541,823	7,13
542,167	7,13
542,512	7,13
542,856	7,11
543,2	7,09
543,543	7,08
543,887	7,09
544,231	7,1
544,575	7,13
544,919	7,18
545,262	7,22
545,606	7,24
545,95	7,25
546,293	7,25
546,637	7,26
546,98	7,27
547,324	7,25
547,667	7,27
548,011	7,26
548,354	7,25
548,697	7,24
549,04	7,22
549,384	7,21
549,727	7,2
550,07	7,2
550,413	7,2
550,756	7,22
551,099	7,21
551,442	7,19
551,785	7,17
552,128	7,17
552,47	7,15
552,813	7,15
553,156	7,15
553,499	7,15
553,841	7,14
554,184	7,13
554,526	7,11
554,869	7,07
555,211	7,07
555,554	7,06
555,896	7,04
556,238	7,01
556,581	6,98
556,923	6,96
557,265	6,96
557,607	6,94
557,949	6,89
558,291	6,88
558,633	6,88
558,975	6,89
559,317	6,85
559,659	6,83
560,001	6,8
560,343	6,78
560,685	6,75
561,026	6,71
561,368	6,69
561,71	6,67
562,051	6,63
562,393	6,61
562,734	6,58
563,076	6,55
563,417	6,55
563,759	6,57
564,1	6,57
564,441	6,56
564,782	6,55
565,124	6,54
565,465	6,54
565,806	6,52
566,147	6,5
566,488	6,49
566,829	6,47
567,17	6,46
567,511	6,43
567,851	6,42
568,192	6,41
568,533	6,38
568,874	6,37
569,214	6,39
569,555	6,39
569,895	6,37
570,236	6,36
570,576	6,34
570,917	6,3
571,257	6,28
571,598	6,26
571,938	6,26
572,278	6,26
572,618	6,25
572,959	6,25
573,299	6,23
573,639	6,21
573,979	6,19
574,319	6,18
574,659	6,18
574,999	6,16
575,339	6,15
575,678	6,16
576,018	6,13
576,358	6,09
576,698	6,08
577,037	6,08
577,377	6,05
577,716	6,04
578,056	6
578,395	5,96
578,735	5,94
579,074	5,92
579,413	5,91
579,753	5,86
580,092	5,78
580,431	5,74
580,77	5,71
581,109	5,69
581,448	5,66
581,787	5,63
582,126	5,62
582,465	5,6
582,804	5,57
583,143	5,56
583,482	5,55
583,82	5,53
584,159	5,52
584,498	5,5
584,836	5,47
585,175	5,46
585,514	5,46
585,852	5,45
586,19	5,43
586,529	5,4
586,867	5,41
587,205	5,41
587,544	5,42
587,882	5,43
588,22	5,42
588,558	5,43
588,896	5,45
589,234	5,44
589,572	5,43
589,91	5,42
590,248	5,39
590,586	5,4
590,924	5,41
591,262	5,42
591,599	5,42
591,937	5,43
592,275	5,43
592,612	5,44
592,95	5,45
593,287	5,47
593,625	5,48
593,962	5,5
594,299	5,53
594,637	5,57
594,974	5,59
595,311	5,61
595,648	5,62
595,985	5,62
596,322	5,63
596,659	5,65
596,996	5,66
597,333	5,66
597,67	5,66
598,007	5,64
598,344	5,62
598,681	5,63
599,017	5,64
599,354	5,64
599,691	5,63
600,027	5,63
600,364	5,63
600,7	5,63
601,037	5,65
601,373	5,65
601,71	5,64
602,046	5,67
602,382	5,68
602,718	5,68
603,054	5,7
603,391	5,72
603,727	5,73
604,063	5,75
604,399	5,77
604,735	5,78
605,071	5,79
605,406	5,78
605,742	5,79
606,078	5,8
606,414	5,82
606,749	5,84
607,085	5,85
607,421	5,87
607,756	5,88
608,092	5,85
608,427	5,85
608,762	5,85
609,098	5,82
609,433	5,78
609,768	5,76
610,104	5,73
610,439	5,69
610,774	5,66
611,109	5,63
611,444	5,59
611,779	5,55
612,114	5,53
612,449	5,54
612,784	5,5
613,118	5,45
613,453	5,41
613,788	5,38
614,123	5,34
614,457	5,25
614,792	5,19
615,126	5,16
615,461	5,11
615,795	5,06
616,13	5,01
616,464	4,98
616,798	4,94
617,132	4,92
617,467	4,9
617,801	4,89
618,135	4,89
618,469	4,92
618,803	4,96
619,137	4,99
619,471	4,99
619,805	4,99
620,139	4,99
620,472	5
620,806	4,99
621,14	4,99
621,473	5,02
621,807	5,02
622,141	5,02
622,474	5,03
622,808	5,03
623,141	5,06
623,474	5,09
623,808	5,13
624,141	5,16
624,474	5,22
624,807	5,28
625,141	5,33
625,474	5,35
625,807	5,37
626,14	5,37
626,473	5,38
626,806	5,4
627,138	5,41
627,471	5,41
627,804	5,42
628,137	5,41
628,469	5,4
628,802	5,39
629,135	5,36
629,467	5,35
629,8	5,35
630,132	5,32
630,465	5,32
630,797	5,31
631,129	5,27
631,461	5,23
631,794	5,17
632,126	5,13
632,458	5,1
632,79	5,07
633,122	5,05
633,454	5,04
633,786	5,04
634,118	5,02
634,45	5,02
634,781	5,02
635,113	5,02
635,445	5,03
635,777	5,08
636,108	5,11
636,44	5,14
636,771	5,12
637,103	5,11
637,434	5,1
637,765	5,09
638,097	5,09
638,428	5,08
638,759	5,07
639,09	5,06
639,422	5,04
639,753	5,02
640,084	5,01
640,415	4,99
640,746	4,97
641,077	5,01
641,407	5,02
641,738	4,99
642,069	4,98
642,4	4,98
642,73	4,95
643,061	4,91
643,392	4,88
643,722	4,91
644,053	4,93
644,383	4,92
644,713	4,92
645,044	4,95
645,374	4,96
645,704	4,94
646,034	4,94
646,365	4,94
646,695	4,94
647,025	4,98
647,355	5,04
647,685	5,06
648,015	5,04
648,344	5,05
648,674	5,07
649,004	5,07
649,334	5,04
649,663	5,06
649,993	5,11
650,323	5,19
650,652	5,17
650,982	5,2
651,311	5,22
651,64	5,22
651,97	5,2
652,299	5,19
652,628	5,23
652,958	5,23
653,287	5,24
653,616	5,26
653,945	5,24
654,274	5,19
654,603	5,17
654,932	5,15
655,261	5,12
655,589	5,14
655,918	5,18
656,247	5,21
656,576	5,21
656,904	5,23
657,233	5,25
657,561	5,29
657,89	5,34
658,218	5,36
658,547	5,38
658,875	5,4
659,203	5,4
659,532	5,42
659,86	5,44
660,188	5,43
660,516	5,42
660,844	5,42
661,172	5,43
661,5	5,46
661,828	5,5
662,156	5,51
662,484	5,5
662,811	5,48
