Data from zc74042_2_Reflection_00001.txt Node
Date: Thu Mar 12 14:49:34 ART 2020
User: Ana
Spectrometer: USB2E3644
Trigger mode: 4
Integration Time (sec): 5,000000E-2
Scans to average: 10
Electric dark correction enabled: true
Nonlinearity correction enabled: false
Boxcar width: 10
XAxis mode: Wavelengths
Number of Pixels in Spectrum: 2048
>>>>>Begin Spectral Data<<<<<
178,315	116,53
178,696	107,76
179,076	98,65
179,457	94,75
179,838	76,77
180,218	76,41
180,599	179,49
180,979	53,57
181,36	75,19
181,74	92,37
182,121	86,11
182,501	93,27
182,881	87,23
183,262	87,94
183,642	91,32
184,022	95,54
184,402	102,15
184,783	108,08
185,163	108,28
185,543	106,04
185,923	104,46
186,303	104,52
186,683	102,72
187,063	100,08
187,443	97,63
187,823	94,67
188,203	95,31
188,583	98,07
188,963	101,59
189,343	104,96
189,723	105,36
190,102	107,05
190,482	112,54
190,862	116,57
191,242	118,61
191,621	117,54
192,001	117,58
192,38	115,88
192,76	115,01
193,14	116,75
193,519	117,94
193,898	117,2
194,278	116,06
194,657	114,68
195,037	114,31
195,416	115,7
195,795	115,78
196,175	114,29
196,554	112,19
196,933	108,5
197,312	106,38
197,692	105,28
198,071	104,91
198,45	103,39
198,829	103,12
199,208	102,65
199,587	101,63
199,966	100,82
200,345	101,03
200,724	101,24
201,103	99,6
201,482	98,44
201,86	99,3
202,239	100,35
202,618	101,2
202,997	101,09
203,375	99,93
203,754	99,82
204,133	100,35
204,511	101,09
204,89	101,27
205,269	101,06
205,647	101,68
206,026	101,58
206,404	101,5
206,782	101,08
207,161	100,66
207,539	101,19
207,918	102,05
208,296	102,16
208,674	102,58
209,052	103,09
209,431	103,87
209,809	102,7
210,187	101,4
210,565	100,87
210,943	101,61
211,321	103,45
211,699	105
212,077	105,36
212,455	105,55
212,833	105,69
213,211	105,42
213,589	105,17
213,967	105,12
214,345	104,96
214,722	104,24
215,1	103,94
215,478	102,41
215,855	100,63
216,233	99,19
216,611	99,16
216,988	100,43
217,366	100,56
217,743	101,49
218,121	102,99
218,498	103,87
218,876	104,45
219,253	104,29
219,631	103,78
220,008	104,36
220,385	103,56
220,762	103,45
221,14	106,63
221,517	108,43
221,894	109,86
222,271	113,03
222,648	117,63
223,025	122,07
223,402	127,42
223,78	131,89
224,157	135,57
224,533	135,71
224,91	134,73
225,287	135,43
225,664	138,02
226,041	141,61
226,418	144,54
226,795	144,6
227,171	145,81
227,548	148,65
227,925	152,21
228,301	157,77
228,678	162,42
229,055	162,12
229,431	164,13
229,808	167,15
230,184	167,83
230,561	168,59
230,937	170,01
231,313	171,03
231,69	173,79
232,066	172,57
232,442	172,19
232,819	177,08
233,195	179,05
233,571	181,22
233,947	182,39
234,323	183,64
234,699	188,99
235,075	191,32
235,451	193,53
235,827	195,8
236,203	197,91
236,579	202,88
236,955	213,48
237,331	225,07
237,707	240,5
238,083	270,09
238,459	319,92
238,834	404,84
239,21	571,69
239,586	898,51
239,961	1822,42
240,337	5607,41
240,713	-11225,93
241,088	-3151,04
241,464	-2300,76
241,839	-1739,55
242,215	-1047,81
242,59	-613,65
242,965	-342,69
243,341	-205,42
243,716	-140,44
244,091	-112,51
244,467	-97,69
244,842	-88,13
245,217	-81,01
245,592	-77,09
245,967	-77,4
246,343	-77,72
246,718	-78,41
247,093	-81,93
247,468	-84,09
247,843	-83,52
248,218	-80,27
248,593	-74,77
248,967	-68,7
249,342	-65,29
249,717	-63,37
250,092	-62,96
250,467	-64,33
250,841	-69,02
251,216	-78,43
251,591	-93,19
251,965	-106,82
252,34	-117,14
252,714	-128,92
253,089	-137
253,463	-142,58
253,838	-138,89
254,212	-132,43
254,587	-122,79
254,961	-106,45
255,335	-91,19
255,71	-76,06
256,084	-60,66
256,458	-49,62
256,832	-42,98
257,206	-39,18
257,581	-36,85
257,955	-34,83
258,329	-33,05
258,703	-31,21
259,077	-30,13
259,451	-28,83
259,825	-28,11
260,199	-28,19
260,572	-27,74
260,946	-27,68
261,32	-27,34
261,694	-26,82
262,068	-26,41
262,441	-26,29
262,815	-26,23
263,189	-25,82
263,562	-26,24
263,936	-28,08
264,309	-30,91
264,683	-33,76
265,056	-35,08
265,43	-35,35
265,803	-35,33
266,176	-34,81
266,55	-34,65
266,923	-33,88
267,296	-32,93
267,67	-31,22
268,043	-29,54
268,416	-27,51
268,789	-25,51
269,162	-23,92
269,535	-22,49
269,908	-21,4
270,281	-20,64
270,654	-20,75
271,027	-21,64
271,4	-22,13
271,773	-22,1
272,146	-21,93
272,519	-21,89
272,891	-22,09
273,264	-22,7
273,637	-23,27
274,01	-23,69
274,382	-24,11
274,755	-24,25
275,127	-24,5
275,5	-24,82
275,872	-24,76
276,245	-24,99
276,617	-25,81
276,99	-26,55
277,362	-27,56
277,734	-27,92
278,107	-27,8
278,479	-27,4
278,851	-26,78
279,223	-26,36
279,596	-25,88
279,968	-25,66
280,34	-25,21
280,712	-24,46
281,084	-23,31
281,456	-22,01
281,828	-20,76
282,2	-19,28
282,572	-18,21
282,944	-17,54
283,315	-17,2
283,687	-17,02
284,059	-16,95
284,431	-16,67
284,802	-16,28
285,174	-15,78
285,546	-15,42
285,917	-15
286,289	-14,76
286,66	-14,57
287,032	-14,25
287,403	-14,12
287,775	-14,09
288,146	-14,24
288,518	-14,43
288,889	-14,4
289,26	-14,53
289,632	-14,92
290,003	-15,51
290,374	-15,98
290,745	-16,3
291,116	-16,43
291,487	-16,56
291,858	-16,67
292,229	-16,64
292,6	-16,42
292,971	-15,9
293,342	-15,28
293,713	-14,71
294,084	-14,08
294,455	-13,45
294,826	-13,18
295,196	-13,2
295,567	-13,27
295,938	-12,96
296,308	-12,66
296,679	-12,48
297,05	-12,22
297,42	-12
297,791	-11,66
298,161	-11,41
298,532	-10,97
298,902	-10,59
299,272	-10,16
299,643	-9,74
300,013	-9,3
300,383	-9,09
300,754	-9,1
301,124	-9,22
301,494	-9,46
301,864	-9,63
302,234	-9,81
302,604	-9,87
302,974	-9,84
303,344	-9,65
303,714	-9,53
304,084	-9,36
304,454	-9,29
304,824	-9,26
305,194	-9,17
305,563	-9,11
305,933	-8,89
306,303	-8,79
306,673	-8,63
307,042	-8,34
307,412	-8,06
307,781	-7,77
308,151	-7,52
308,521	-7,42
308,89	-7,28
309,259	-7,28
309,629	-7,24
309,998	-7,03
310,368	-6,94
310,737	-6,7
311,106	-6,55
311,475	-6,47
311,845	-6,46
312,214	-6,47
312,583	-6,42
312,952	-6,43
313,321	-6,45
313,69	-6,28
314,059	-6,19
314,428	-6,18
314,797	-6,39
315,166	-6,64
315,535	-6,93
315,904	-7,27
316,272	-7,44
316,641	-7,56
317,01	-7,46
317,379	-7,37
317,747	-7,33
318,116	-7,1
318,484	-6,91
318,853	-6,78
319,221	-6,8
319,59	-6,93
319,958	-6,76
320,327	-6,57
320,695	-6,35
321,063	-6,05
321,432	-5,91
321,8	-5,64
322,168	-5,39
322,536	-5,25
322,905	-4,92
323,273	-4,7
323,641	-4,4
324,009	-4,2
324,377	-4,14
324,745	-4,06
325,113	-3,94
325,481	-3,79
325,849	-3,74
326,216	-3,77
326,584	-3,75
326,952	-3,59
327,32	-3,28
327,687	-3,14
328,055	-3,02
328,423	-2,91
328,79	-2,91
329,158	-2,91
329,525	-2,96
329,893	-2,91
330,26	-2,7
330,628	-2,64
330,995	-2,5
331,362	-2,44
331,73	-2,4
332,097	-2,31
332,464	-2,15
332,831	-1,98
333,199	-1,83
333,566	-1,58
333,933	-1,32
334,3	-1,05
334,667	-0,87
335,034	-0,79
335,401	-0,75
335,768	-0,7
336,135	-0,65
336,502	-0,58
336,868	-0,49
337,235	-0,34
337,602	-0,29
337,969	-0,23
338,335	-0,09
338,702	0,04
339,069	0,18
339,435	0,26
339,802	0,39
340,168	0,45
340,535	0,49
340,901	0,46
341,267	0,39
341,634	0,43
342	0,45
342,366	0,49
342,733	0,55
343,099	0,7
343,465	0,81
343,831	0,95
344,197	1,11
344,563	1,2
344,929	1,18
345,295	1,28
345,661	1,4
346,027	1,47
346,393	1,48
346,759	1,53
347,125	1,63
347,491	1,69
347,856	1,75
348,222	1,76
348,588	1,88
348,953	2,02
349,319	2,04
349,684	2,09
350,05	2,14
350,415	2,2
350,781	2,22
351,146	2,28
351,512	2,31
351,877	2,31
352,242	2,32
352,608	2,4
352,973	2,46
353,338	2,55
353,703	2,67
354,068	2,78
354,433	2,89
354,798	3,01
355,164	3,09
355,528	3,1
355,893	3,14
356,258	3,11
356,623	3,12
356,988	3,19
357,353	3,25
357,718	3,28
358,082	3,3
358,447	3,34
358,812	3,43
359,176	3,47
359,541	3,56
359,905	3,63
360,27	3,65
360,634	3,68
360,999	3,7
361,363	3,7
361,728	3,67
362,092	3,61
362,456	3,56
362,821	3,6
363,185	3,69
363,549	3,77
363,913	3,86
364,277	3,9
364,641	3,87
365,005	3,91
365,369	3,96
365,733	4,05
366,097	4,13
366,461	4,19
366,825	4,27
367,189	4,32
367,553	4,4
367,916	4,52
368,28	4,63
368,644	4,68
369,007	4,72
369,371	4,83
369,734	4,95
370,098	5,1
370,461	5,18
370,825	5,21
371,188	5,25
371,552	5,33
371,915	5,42
372,278	5,56
372,642	5,66
373,005	5,8
373,368	5,94
373,731	6,03
374,094	6,11
374,457	6,18
374,82	6,27
375,183	6,33
375,546	6,38
375,909	6,42
376,272	6,51
376,635	6,63
376,998	6,75
377,361	6,88
377,723	6,96
378,086	7,03
378,449	7,11
378,811	7,14
379,174	7,2
379,537	7,25
379,899	7,33
380,262	7,36
380,624	7,39
380,987	7,41
381,349	7,46
381,711	7,52
382,074	7,6
382,436	7,68
382,798	7,79
383,16	7,82
383,522	7,86
383,884	7,88
384,247	7,91
384,609	7,94
384,971	7,92
385,333	7,92
385,695	7,95
386,056	7,98
386,418	8,05
386,78	8,06
387,142	8,05
387,504	8,01
387,865	8,03
388,227	8,02
388,589	8,04
388,95	8,06
389,312	8,06
389,673	8,07
390,035	8,04
390,396	8,03
390,758	8,06
391,119	8,08
391,48	8,11
391,842	8,13
392,203	8,13
392,564	8,15
392,925	8,19
393,286	8,21
393,648	8,24
394,009	8,25
394,37	8,28
394,731	8,33
395,092	8,35
395,452	8,37
395,813	8,43
396,174	8,45
396,535	8,45
396,896	8,47
397,257	8,49
397,617	8,53
397,978	8,56
398,338	8,58
398,699	8,59
399,06	8,62
399,42	8,64
399,781	8,64
400,141	8,63
400,501	8,61
400,862	8,62
401,222	8,61
401,582	8,61
401,943	8,63
402,303	8,66
402,663	8,7
403,023	8,71
403,383	8,72
403,743	8,72
404,103	8,75
404,463	8,76
404,823	8,77
405,183	8,79
405,543	8,8
405,903	8,82
406,262	8,88
406,622	8,88
406,982	8,89
407,342	8,93
407,701	8,95
408,061	9
408,42	9,03
408,78	9,1
409,139	9,12
409,499	9,13
409,858	9,13
410,217	9,17
410,577	9,18
410,936	9,18
411,295	9,18
411,655	9,16
412,014	9,16
412,373	9,14
412,732	9,09
413,091	9,06
413,45	9,01
413,809	8,96
414,168	8,91
414,527	8,85
414,886	8,8
415,245	8,76
415,603	8,71
415,962	8,66
416,321	8,59
416,679	8,56
417,038	8,51
417,397	8,48
417,755	8,43
418,114	8,39
418,472	8,37
418,831	8,34
419,189	8,36
419,547	8,35
419,906	8,33
420,264	8,31
420,622	8,3
420,981	8,31
421,339	8,3
421,697	8,3
422,055	8,31
422,413	8,33
422,771	8,35
423,129	8,38
423,487	8,4
423,845	8,42
424,203	8,44
424,56	8,48
424,918	8,51
425,276	8,57
425,634	8,61
425,991	8,64
426,349	8,69
426,707	8,71
427,064	8,75
427,422	8,8
427,779	8,87
428,137	8,92
428,494	8,99
428,851	9,02
429,209	9,06
429,566	9,09
429,923	9,1
430,28	9,08
430,637	9,09
430,995	9,08
431,352	9,07
431,709	9,09
432,066	9,09
432,423	9,08
432,78	9,07
433,137	9,07
433,493	9,07
433,85	9,09
434,207	9,06
434,564	9,06
434,92	9,04
435,277	9,02
435,634	9
435,99	8,97
436,347	8,97
436,703	8,98
437,06	8,97
437,416	8,97
437,773	8,96
438,129	8,94
438,485	8,94
438,841	8,94
439,198	8,94
439,554	8,95
439,91	8,96
440,266	8,97
440,622	8,96
440,978	8,97
441,334	8,95
441,69	8,94
442,046	8,93
442,402	8,91
442,758	8,92
443,113	8,92
443,469	8,92
443,825	8,92
444,181	8,92
444,536	8,92
444,892	8,93
445,247	8,95
445,603	8,98
445,958	9
446,314	9,02
446,669	9,02
447,025	9,03
447,38	9,02
447,735	9,03
448,09	9,05
448,446	9,04
448,801	9,05
449,156	9,06
449,511	9,08
449,866	9,12
450,221	9,15
450,576	9,19
450,931	9,24
451,286	9,27
451,641	9,3
451,995	9,32
452,35	9,36
452,705	9,38
453,06	9,38
453,414	9,38
453,769	9,41
454,123	9,41
454,478	9,42
454,832	9,43
455,187	9,42
455,541	9,41
455,896	9,4
456,25	9,4
456,604	9,38
456,958	9,35
457,313	9,33
457,667	9,32
458,021	9,33
458,375	9,33
458,729	9,36
459,083	9,37
459,437	9,39
459,791	9,38
460,145	9,39
460,499	9,41
460,852	9,41
461,206	9,41
461,56	9,4
461,914	9,41
462,267	9,41
462,621	9,43
462,974	9,45
463,328	9,48
463,681	9,49
464,035	9,54
464,388	9,58
464,742	9,6
465,095	9,62
465,448	9,63
465,801	9,61
466,155	9,59
466,508	9,59
466,861	9,58
467,214	9,57
467,567	9,55
467,92	9,56
468,273	9,54
468,626	9,54
468,979	9,54
469,332	9,53
469,684	9,54
470,037	9,54
470,39	9,54
470,743	9,55
471,095	9,55
471,448	9,56
471,8	9,58
472,153	9,6
472,505	9,6
472,858	9,59
473,21	9,61
473,562	9,62
473,915	9,61
474,267	9,61
474,619	9,61
474,971	9,61
475,324	9,59
475,676	9,62
476,028	9,62
476,38	9,63
476,732	9,62
477,084	9,61
477,436	9,58
477,787	9,58
478,139	9,57
478,491	9,57
478,843	9,56
479,195	9,54
479,546	9,51
479,898	9,47
480,249	9,43
480,601	9,4
480,952	9,35
481,304	9,34
481,655	9,34
482,007	9,33
482,358	9,33
482,709	9,33
483,061	9,32
483,412	9,32
483,763	9,31
484,114	9,32
484,465	9,31
484,816	9,32
485,167	9,31
485,518	9,31
485,869	9,31
486,22	9,3
486,571	9,3
486,922	9,31
487,272	9,32
487,623	9,33
487,974	9,34
488,324	9,37
488,675	9,37
489,025	9,38
489,376	9,37
489,726	9,38
490,077	9,38
490,427	9,39
490,778	9,4
491,128	9,41
491,478	9,43
491,828	9,46
492,179	9,48
492,529	9,5
492,879	9,52
493,229	9,54
493,579	9,57
493,929	9,59
494,279	9,61
494,629	9,63
494,979	9,66
495,328	9,71
495,678	9,74
496,028	9,81
496,378	9,84
496,727	9,87
497,077	9,88
497,426	9,9
497,776	9,91
498,125	9,93
498,475	9,95
498,824	9,95
499,174	9,95
499,523	9,95
499,872	9,97
500,221	9,99
500,571	9,99
500,92	10
501,269	10,01
501,618	10,03
501,967	10,04
502,316	10,04
502,665	10,03
503,014	10,04
503,363	10,03
503,711	10,04
504,06	10,06
504,409	10,07
504,758	10,06
505,106	10,07
505,455	10,07
505,803	10,06
506,152	10,04
506,5	10,03
506,849	10,02
507,197	10,02
507,546	10,01
507,894	10,02
508,242	10,03
508,59	10,02
508,939	10,01
509,287	10
509,635	10,01
509,983	10,02
510,331	10,01
510,679	10,03
511,027	10,03
511,375	10,02
511,723	10,03
512,07	10,06
512,418	10,07
512,766	10,09
513,114	10,12
513,461	10,17
513,809	10,2
514,156	10,22
514,504	10,23
514,851	10,23
515,199	10,22
515,546	10,2
515,893	10,21
516,241	10,21
516,588	10,2
516,935	10,21
517,282	10,21
517,63	10,22
517,977	10,22
518,324	10,23
518,671	10,25
519,018	10,27
519,365	10,25
519,711	10,26
520,058	10,27
520,405	10,26
520,752	10,23
521,099	10,24
521,445	10,25
521,792	10,25
522,138	10,25
522,485	10,26
522,832	10,27
523,178	10,25
523,524	10,28
523,871	10,3
524,217	10,3
524,563	10,28
524,91	10,24
525,256	10,22
525,602	10,18
525,948	10,15
526,294	10,14
526,64	10,13
526,986	10,12
527,332	10,1
527,678	10,09
528,024	10,1
528,37	10,1
528,716	10,09
529,061	10,09
529,407	10,09
529,753	10,09
530,098	10,08
530,444	10,1
530,789	10,09
531,135	10,08
531,48	10,08
531,826	10,08
532,171	10,11
532,516	10,12
532,862	10,16
533,207	10,18
533,552	10,2
533,897	10,23
534,242	10,23
534,587	10,25
534,932	10,26
535,277	10,26
535,622	10,26
535,967	10,27
536,312	10,28
536,657	10,29
537,001	10,32
537,346	10,32
537,691	10,32
538,035	10,33
538,38	10,34
538,724	10,34
539,069	10,35
539,413	10,35
539,758	10,34
540,102	10,34
540,446	10,32
540,791	10,31
541,135	10,31
541,479	10,32
541,823	10,33
542,167	10,32
542,512	10,34
542,856	10,33
543,2	10,33
543,543	10,33
543,887	10,33
544,231	10,33
544,575	10,35
544,919	10,37
545,262	10,38
545,606	10,39
545,95	10,39
546,293	10,4
546,637	10,4
546,98	10,43
547,324	10,43
547,667	10,48
548,011	10,49
548,354	10,53
548,697	10,53
549,04	10,52
549,384	10,54
549,727	10,54
550,07	10,53
550,413	10,54
550,756	10,55
551,099	10,56
551,442	10,55
551,785	10,56
552,128	10,56
552,47	10,54
552,813	10,55
553,156	10,57
553,499	10,58
553,841	10,58
554,184	10,57
554,526	10,55
554,869	10,51
555,211	10,51
555,554	10,47
555,896	10,43
556,238	10,42
556,581	10,39
556,923	10,35
557,265	10,36
557,607	10,34
557,949	10,33
558,291	10,3
558,633	10,29
558,975	10,28
559,317	10,24
559,659	10,23
560,001	10,21
560,343	10,18
560,685	10,14
561,026	10,14
561,368	10,12
561,71	10,1
562,051	10,08
562,393	10,07
562,734	10,06
563,076	10,06
563,417	10,07
563,759	10,06
564,1	10,07
564,441	10,06
564,782	10,05
565,124	10,05
565,465	10,07
565,806	10,06
566,147	10,06
566,488	10,07
566,829	10,07
567,17	10,06
567,511	10,05
567,851	10,05
568,192	10,01
568,533	10,01
568,874	10,04
569,214	10,05
569,555	10
569,895	9,99
570,236	9,96
570,576	9,93
570,917	9,92
571,257	9,93
571,598	9,92
571,938	9,92
572,278	9,9
572,618	9,88
572,959	9,88
573,299	9,86
573,639	9,83
573,979	9,81
574,319	9,8
574,659	9,81
574,999	9,81
575,339	9,82
575,678	9,81
576,018	9,79
576,358	9,76
576,698	9,79
577,037	9,8
577,377	9,81
577,716	9,83
578,056	9,83
578,395	9,82
578,735	9,8
579,074	9,79
579,413	9,77
579,753	9,75
580,092	9,71
580,431	9,68
580,77	9,68
581,109	9,67
581,448	9,66
581,787	9,64
582,126	9,6
582,465	9,56
582,804	9,53
583,143	9,52
583,482	9,52
583,82	9,51
584,159	9,5
584,498	9,49
584,836	9,5
585,175	9,48
585,514	9,46
585,852	9,45
586,19	9,46
586,529	9,47
586,867	9,48
587,205	9,47
587,544	9,5
587,882	9,53
588,22	9,52
588,558	9,53
588,896	9,53
589,234	9,53
589,572	9,55
589,91	9,57
590,248	9,54
590,586	9,53
590,924	9,54
591,262	9,55
591,599	9,53
591,937	9,51
592,275	9,52
592,612	9,53
592,95	9,55
593,287	9,57
593,625	9,6
593,962	9,6
594,299	9,65
594,637	9,68
594,974	9,68
595,311	9,71
595,648	9,73
595,985	9,74
596,322	9,75
596,659	9,76
596,996	9,79
597,333	9,8
597,67	9,8
598,007	9,78
598,344	9,77
598,681	9,77
599,017	9,8
599,354	9,82
599,691	9,83
600,027	9,84
600,364	9,84
600,7	9,85
601,037	9,88
601,373	9,88
601,71	9,86
602,046	9,89
602,382	9,89
602,718	9,88
603,054	9,9
603,391	9,91
603,727	9,91
604,063	9,91
604,399	9,92
604,735	9,95
605,071	9,99
605,406	9,99
605,742	10,01
606,078	10,01
606,414	10,02
606,749	10,04
607,085	10,05
607,421	10,06
607,756	10,04
608,092	10,04
608,427	10,03
608,762	10,02
609,098	10
609,433	9,99
609,768	10
610,104	10
610,439	9,98
610,774	9,98
611,109	9,97
611,444	9,97
611,779	9,95
612,114	9,92
612,449	9,93
612,784	9,91
613,118	9,9
613,453	9,87
613,788	9,82
614,123	9,79
614,457	9,74
614,792	9,74
615,126	9,75
615,461	9,72
615,795	9,72
616,13	9,69
616,464	9,7
616,798	9,67
617,132	9,65
617,467	9,63
617,801	9,61
618,135	9,61
618,469	9,61
618,803	9,63
619,137	9,68
619,471	9,67
619,805	9,67
620,139	9,69
620,472	9,71
620,806	9,71
621,14	9,72
621,473	9,75
621,807	9,72
622,141	9,72
622,474	9,72
622,808	9,74
623,141	9,76
623,474	9,74
623,808	9,77
624,141	9,81
624,474	9,87
624,807	9,91
625,141	9,92
625,474	9,95
625,807	9,97
626,14	9,93
626,473	9,96
626,806	9,97
627,138	9,96
627,471	9,93
627,804	9,96
628,137	9,96
628,469	9,95
628,802	9,97
629,135	9,97
629,467	10
629,8	10,01
630,132	10,02
630,465	10,04
630,797	10,06
631,129	10,04
631,461	10,04
631,794	10,04
632,126	10,03
632,458	10,01
632,79	9,99
633,122	10
633,454	9,99
633,786	9,99
634,118	10
634,45	10,03
634,781	10,03
635,113	9,99
635,445	9,99
635,777	10
636,108	9,99
636,44	9,99
636,771	9,99
637,103	9,96
637,434	9,94
637,765	9,91
638,097	9,92
638,428	9,9
638,759	9,87
639,09	9,9
639,422	9,92
639,753	9,92
640,084	9,91
640,415	9,88
640,746	9,9
641,077	9,91
641,407	9,92
641,738	9,93
642,069	10,02
642,4	10,07
642,73	10,09
643,061	10,13
643,392	10,1
643,722	10,11
644,053	10,14
644,383	10,17
644,713	10,21
645,044	10,22
645,374	10,23
645,704	10,26
646,034	10,25
646,365	10,23
646,695	10,26
647,025	10,32
647,355	10,35
647,685	10,34
648,015	10,32
648,344	10,32
648,674	10,29
649,004	10,26
649,334	10,24
649,663	10,26
649,993	10,25
650,323	10,3
650,652	10,28
650,982	10,28
651,311	10,25
651,64	10,22
651,97	10,23
652,299	10,25
652,628	10,27
652,958	10,27
653,287	10,32
653,616	10,31
653,945	10,27
654,274	10,28
654,603	10,3
654,932	10,3
655,261	10,29
655,589	10,31
655,918	10,33
656,247	10,36
656,576	10,37
656,904	10,42
657,233	10,44
657,561	10,52
657,89	10,57
658,218	10,63
658,547	10,66
658,875	10,65
