Data from zc74051_1_Reflection_00005.txt Node
Date: Thu Mar 12 15:03:37 ART 2020
User: Ana
Spectrometer: USB2E3644
Trigger mode: 4
Integration Time (sec): 5,000000E-2
Scans to average: 10
Electric dark correction enabled: true
Nonlinearity correction enabled: false
Boxcar width: 10
XAxis mode: Wavelengths
Number of Pixels in Spectrum: 2048
>>>>>Begin Spectral Data<<<<<
178,315	142,92
178,696	158,56
179,076	203,16
179,457	229,43
179,838	239,1
180,218	349,49
180,599	-636,11
180,979	163,16
181,36	394,44
181,74	202,02
182,121	151,48
182,501	115,16
182,881	109,04
183,262	107,76
183,642	109,43
184,022	112,76
184,402	113,49
184,783	111
185,163	109,16
185,543	109,2
185,923	109,69
186,303	112,06
186,683	115,96
187,063	118,79
187,443	118,42
187,823	114,87
188,203	112,13
188,583	110,36
188,963	107,2
189,343	104,91
189,723	105,07
190,102	105,41
190,482	105,52
190,862	106,16
191,242	107,05
191,621	107,12
192,001	107,3
192,38	107,96
192,76	110,12
193,14	112,22
193,519	113,48
193,898	113,64
194,278	111,86
194,657	109,71
195,037	109,66
195,416	109,77
195,795	110,17
196,175	111,19
196,554	111,02
196,933	111,99
197,312	113,2
197,692	113,21
198,071	113,93
198,45	115
198,829	115,93
199,208	115,96
199,587	116,51
199,966	117,57
200,345	118,37
200,724	118,15
201,103	117,24
201,482	116,35
201,86	115,49
202,239	115,04
202,618	114,9
202,997	115,16
203,375	115,7
203,754	115,87
204,133	115,99
204,511	115,8
204,89	115,48
205,269	114,56
205,647	113,66
206,026	112,5
206,404	111,5
206,782	109,84
207,161	107,85
207,539	105,84
207,918	104,1
208,296	103,44
208,674	103,41
209,052	103,57
209,431	103,7
209,809	104,19
210,187	105,15
210,565	106,34
210,943	106,32
211,321	106,05
211,699	107,16
212,077	107,65
212,455	108,17
212,833	108,29
213,211	108,23
213,589	108,92
213,967	110,09
214,345	110,87
214,722	111,59
215,1	112,84
215,478	114,53
215,855	116,1
216,233	116,42
216,611	116,12
216,988	116,43
217,366	115,96
217,743	115,21
218,121	113,65
218,498	111,43
218,876	110,09
219,253	108,93
219,631	106,45
220,008	105,18
220,385	104,61
220,762	103,88
221,14	103,53
221,517	103,43
221,894	102,95
222,271	102,86
222,648	103,14
223,025	103,19
223,402	103,09
223,78	102,15
224,157	101,25
224,533	101,86
224,91	102,59
225,287	104,59
225,664	106,91
226,041	110,13
226,418	113,42
226,795	115,45
227,171	116,97
227,548	119,22
227,925	120,25
228,301	120,88
228,678	121,3
229,055	121,69
229,431	122,24
229,808	123,51
230,184	124,18
230,561	125,51
230,937	126,68
231,313	127,93
231,69	129,94
232,066	133,38
232,442	135,76
232,819	137,47
233,195	138,19
233,571	138,82
233,947	138,13
234,323	137,86
234,699	139,19
235,075	140,64
235,451	142,81
235,827	145,87
236,203	149,36
236,579	153,95
236,955	158,84
237,331	162,64
237,707	167,6
238,083	175,58
238,459	185,11
238,834	201,38
239,21	223,73
239,586	250,13
239,961	271,88
240,337	288,63
240,713	301,18
241,088	314,87
241,464	327,65
241,839	345,21
242,215	375,47
242,59	459,16
242,965	809,19
243,341	-4319,89
243,716	-532,6
244,091	-304,88
244,467	-229,39
244,842	-188,64
245,217	-162,19
245,592	-148,74
245,967	-145,65
246,343	-141,09
246,718	-138,05
247,093	-141,21
247,468	-145,7
247,843	-145,04
248,218	-138,11
248,593	-125,32
248,967	-113,93
249,342	-107,64
249,717	-104,58
250,092	-102,66
250,467	-104,64
250,841	-113,99
251,216	-134,16
251,591	-165,81
251,965	-201,77
252,34	-236,3
252,714	-280,24
253,089	-335,79
253,463	-380,96
253,838	-383,77
254,212	-374,76
254,587	-341,02
254,961	-275,3
255,335	-215,3
255,71	-165,26
256,084	-119,73
256,458	-91,31
256,832	-75,41
257,206	-66,69
257,581	-61,83
257,955	-59,07
258,329	-56,63
258,703	-53,61
259,077	-51,22
259,451	-49,26
259,825	-48,79
260,199	-49,39
260,572	-49,13
260,946	-49,16
261,32	-48,97
261,694	-48,42
262,068	-48,26
262,441	-47,89
262,815	-48,04
263,189	-47,63
263,562	-48,37
263,936	-51,6
264,309	-57,73
264,683	-64,53
265,056	-68,47
265,43	-69,97
265,803	-69,44
266,176	-67,73
266,55	-66,38
266,923	-64,77
267,296	-62,62
267,67	-59,16
268,043	-55,82
268,416	-51,96
268,789	-48,03
269,162	-44,76
269,535	-42,33
269,908	-40,37
270,281	-39,08
270,654	-38,6
271,027	-38,92
271,4	-38,79
271,773	-38,78
272,146	-38,36
272,519	-37,91
272,891	-37,77
273,264	-37,77
273,637	-37,63
274,01	-37,55
274,382	-38,35
274,755	-38,77
275,127	-39,25
275,5	-39,58
275,872	-39,73
276,245	-40,43
276,617	-41,55
276,99	-42,36
277,362	-42,95
277,734	-42,93
278,107	-42,59
278,479	-41,76
278,851	-40,85
279,223	-40,5
279,596	-39,83
279,968	-39,35
280,34	-38,74
280,712	-37,93
281,084	-36,5
281,456	-34,89
281,828	-33,01
282,2	-30,45
282,572	-28,67
282,944	-27,39
283,315	-26,79
283,687	-26,15
284,059	-25,79
284,431	-25,31
284,802	-24,6
285,174	-24,04
285,546	-23,6
285,917	-23,1
286,289	-22,74
286,66	-22,51
287,032	-22,16
287,403	-21,97
287,775	-21,94
288,146	-22,18
288,518	-22,47
288,889	-22,62
289,26	-22,92
289,632	-23,7
290,003	-24,74
290,374	-25,35
290,745	-25,57
291,116	-25,5
291,487	-25,46
291,858	-25,24
292,229	-25,16
292,6	-24,95
292,971	-24,23
293,342	-23,55
293,713	-22,88
294,084	-22,18
294,455	-21,3
294,826	-20,7
295,196	-20,38
295,567	-20,37
295,938	-19,98
296,308	-19,42
296,679	-19
297,05	-18,54
297,42	-17,96
297,791	-17,23
298,161	-16,88
298,532	-16,5
298,902	-16,19
299,272	-15,95
299,643	-15,69
300,013	-15,18
300,383	-14,77
300,754	-14,8
301,124	-15,03
301,494	-15,21
301,864	-15,44
302,234	-15,72
302,604	-15,81
302,974	-15,77
303,344	-15,45
303,714	-15,13
304,084	-14,7
304,454	-14,34
304,824	-14,16
305,194	-14,11
305,563	-14,2
305,933	-14,07
306,303	-13,92
306,673	-13,54
307,042	-12,96
307,412	-12,35
307,781	-11,76
308,151	-11,4
308,521	-11,08
308,89	-10,6
309,259	-10,44
309,629	-10,37
309,998	-10,28
310,368	-10,28
310,737	-10,21
311,106	-10,23
311,475	-10,18
311,845	-10,35
312,214	-10,47
312,583	-10,51
312,952	-10,52
313,321	-10,48
313,69	-10,25
314,059	-10,15
314,428	-10,2
314,797	-10,4
315,166	-10,7
315,535	-11,17
315,904	-11,68
316,272	-12,05
316,641	-12,45
317,01	-12,46
317,379	-12,32
317,747	-12,18
318,116	-11,94
318,484	-11,74
318,853	-11,55
319,221	-11,44
319,59	-11,36
319,958	-11,21
320,327	-10,94
320,695	-10,68
321,063	-10,34
321,432	-10,07
321,8	-9,75
322,168	-9,62
322,536	-9,54
322,905	-9,11
323,273	-8,68
323,641	-8,24
324,009	-7,81
324,377	-7,45
324,745	-7,16
325,113	-6,83
325,481	-6,54
325,849	-6,37
326,216	-6,24
326,584	-6
326,952	-5,74
327,32	-5,35
327,687	-5,02
328,055	-4,71
328,423	-4,53
328,79	-4,52
329,158	-4,58
329,525	-4,64
329,893	-4,59
330,26	-4,46
330,628	-4,42
330,995	-4,38
331,362	-4,39
331,73	-4,43
332,097	-4,36
332,464	-4,28
332,831	-4,15
333,199	-4,05
333,566	-3,86
333,933	-3,65
334,3	-3,51
334,667	-3,49
335,034	-3,51
335,401	-3,54
335,768	-3,58
336,135	-3,51
336,502	-3,34
336,868	-3,16
337,235	-2,99
337,602	-2,75
337,969	-2,51
338,335	-2,29
338,702	-2,06
339,069	-1,87
339,435	-1,72
339,802	-1,51
340,168	-1,35
340,535	-1,25
340,901	-1,26
341,267	-1,23
341,634	-1,09
342	-0,95
342,366	-0,77
342,733	-0,64
343,099	-0,46
343,465	-0,36
343,831	-0,26
344,197	-0,15
344,563	-0,1
344,929	-0,09
345,295	0,01
345,661	0,12
346,027	0,18
346,393	0,24
346,759	0,35
347,125	0,43
347,491	0,43
347,856	0,42
348,222	0,45
348,588	0,67
348,953	0,81
349,319	0,79
349,684	0,85
350,05	0,93
350,415	1,06
350,781	1,13
351,146	1,29
351,512	1,4
351,877	1,43
352,242	1,5
352,608	1,63
352,973	1,72
353,338	1,82
353,703	1,94
354,068	2
354,433	2,06
354,798	2,14
355,164	2,2
355,528	2,27
355,893	2,3
356,258	2,25
356,623	2,29
356,988	2,42
357,353	2,54
357,718	2,62
358,082	2,69
358,447	2,73
358,812	2,84
359,176	2,95
359,541	3,1
359,905	3,22
360,27	3,3
360,634	3,33
360,999	3,36
361,363	3,38
361,728	3,47
362,092	3,55
362,456	3,6
362,821	3,69
363,185	3,81
363,549	3,96
363,913	4,07
364,277	4,16
364,641	4,24
365,005	4,31
365,369	4,38
365,733	4,47
366,097	4,55
366,461	4,55
366,825	4,59
367,189	4,63
367,553	4,74
367,916	4,88
368,28	5,04
368,644	5,15
369,007	5,24
369,371	5,32
369,734	5,41
370,098	5,54
370,461	5,65
370,825	5,7
371,188	5,74
371,552	5,81
371,915	5,87
372,278	5,96
372,642	6,04
373,005	6,19
373,368	6,34
373,731	6,48
374,094	6,62
374,457	6,69
374,82	6,8
375,183	6,82
375,546	6,89
375,909	6,96
376,272	7,06
376,635	7,16
376,998	7,26
377,361	7,36
377,723	7,44
378,086	7,51
378,449	7,59
378,811	7,67
379,174	7,77
379,537	7,86
379,899	7,9
380,262	7,95
380,624	7,97
380,987	8
381,349	8,07
381,711	8,14
382,074	8,23
382,436	8,31
382,798	8,49
383,16	8,57
383,522	8,62
383,884	8,67
384,247	8,72
384,609	8,77
384,971	8,81
385,333	8,86
385,695	8,92
386,056	8,97
386,418	8,99
386,78	9,01
387,142	9,08
387,504	9,14
387,865	9,22
388,227	9,28
388,589	9,31
388,95	9,34
389,312	9,34
389,673	9,39
390,035	9,44
390,396	9,41
390,758	9,4
391,119	9,43
391,48	9,44
391,842	9,47
392,203	9,5
392,564	9,55
392,925	9,6
393,286	9,61
393,648	9,64
394,009	9,7
394,37	9,72
394,731	9,74
395,092	9,76
395,452	9,77
395,813	9,79
396,174	9,81
396,535	9,81
396,896	9,85
397,257	9,89
397,617	9,92
397,978	9,95
398,338	9,98
398,699	10,02
399,06	10,09
399,42	10,1
399,781	10,09
400,141	10,05
400,501	10,02
400,862	10,05
401,222	10,07
401,582	10,08
401,943	10,12
402,303	10,15
402,663	10,17
403,023	10,19
403,383	10,2
403,743	10,2
404,103	10,22
404,463	10,26
404,823	10,3
405,183	10,31
405,543	10,34
405,903	10,32
406,262	10,32
406,622	10,29
406,982	10,31
407,342	10,37
407,701	10,43
408,061	10,46
408,42	10,51
408,78	10,53
409,139	10,54
409,499	10,55
409,858	10,56
410,217	10,57
410,577	10,58
410,936	10,59
411,295	10,59
411,655	10,57
412,014	10,54
412,373	10,49
412,732	10,45
413,091	10,43
413,45	10,42
413,809	10,39
414,168	10,37
414,527	10,35
414,886	10,29
415,245	10,23
415,603	10,19
415,962	10,14
416,321	10,13
416,679	10,1
417,038	10,05
417,397	10,01
417,755	9,96
418,114	9,95
418,472	9,93
418,831	9,92
419,189	9,92
419,547	9,9
419,906	9,9
420,264	9,88
420,622	9,85
420,981	9,83
421,339	9,82
421,697	9,81
422,055	9,81
422,413	9,83
422,771	9,85
423,129	9,87
423,487	9,89
423,845	9,9
424,203	9,92
424,56	9,96
424,918	10
425,276	10,06
425,634	10,08
425,991	10,11
426,349	10,15
426,707	10,19
427,064	10,25
427,422	10,27
427,779	10,33
428,137	10,39
428,494	10,48
428,851	10,52
429,209	10,54
429,566	10,54
429,923	10,53
430,28	10,52
430,637	10,54
430,995	10,56
431,352	10,55
431,709	10,54
432,066	10,54
432,423	10,52
432,78	10,49
433,137	10,49
433,493	10,49
433,85	10,5
434,207	10,47
434,564	10,44
434,92	10,43
435,277	10,4
435,634	10,4
435,99	10,37
436,347	10,35
436,703	10,37
437,06	10,37
437,416	10,38
437,773	10,38
438,129	10,35
438,485	10,35
438,841	10,34
439,198	10,34
439,554	10,33
439,91	10,35
440,266	10,36
440,622	10,36
440,978	10,36
441,334	10,33
441,69	10,32
442,046	10,3
442,402	10,29
442,758	10,3
443,113	10,28
443,469	10,28
443,825	10,28
444,181	10,26
444,536	10,27
444,892	10,27
445,247	10,28
445,603	10,31
445,958	10,33
446,314	10,33
446,669	10,35
447,025	10,36
447,38	10,36
447,735	10,37
448,09	10,37
448,446	10,38
448,801	10,41
449,156	10,44
449,511	10,46
449,866	10,5
450,221	10,53
450,576	10,58
450,931	10,62
451,286	10,67
451,641	10,72
451,995	10,75
452,35	10,79
452,705	10,8
453,06	10,79
453,414	10,78
453,769	10,8
454,123	10,81
454,478	10,81
454,832	10,83
455,187	10,8
455,541	10,81
455,896	10,79
456,25	10,77
456,604	10,73
456,958	10,72
457,313	10,7
457,667	10,69
458,021	10,69
458,375	10,7
458,729	10,71
459,083	10,73
459,437	10,74
459,791	10,73
460,145	10,72
460,499	10,72
460,852	10,71
461,206	10,72
461,56	10,73
461,914	10,74
462,267	10,73
462,621	10,76
462,974	10,75
463,328	10,76
463,681	10,77
464,035	10,83
464,388	10,88
464,742	10,9
465,095	10,9
465,448	10,9
465,801	10,88
466,155	10,88
466,508	10,87
466,861	10,83
467,214	10,84
467,567	10,83
467,92	10,86
468,273	10,86
468,626	10,85
468,979	10,83
469,332	10,82
469,684	10,83
470,037	10,84
470,39	10,86
470,743	10,87
471,095	10,87
471,448	10,87
471,8	10,85
472,153	10,86
472,505	10,89
472,858	10,91
473,21	10,93
473,562	10,94
473,915	10,94
474,267	10,96
474,619	10,96
474,971	10,97
475,324	10,97
475,676	10,99
476,028	11,01
476,38	11,02
476,732	11,04
477,084	11,01
477,436	11
477,787	10,99
478,139	10,98
478,491	10,99
478,843	10,99
479,195	10,99
479,546	10,95
479,898	10,87
480,249	10,84
480,601	10,81
480,952	10,77
481,304	10,75
481,655	10,74
482,007	10,71
482,358	10,69
482,709	10,67
483,061	10,65
483,412	10,64
483,763	10,64
484,114	10,63
484,465	10,62
484,816	10,6
485,167	10,59
485,518	10,6
485,869	10,59
486,22	10,58
486,571	10,57
486,922	10,58
487,272	10,59
487,623	10,59
487,974	10,59
488,324	10,6
488,675	10,61
489,025	10,61
489,376	10,62
489,726	10,64
490,077	10,66
490,427	10,68
490,778	10,69
491,128	10,7
491,478	10,71
491,828	10,74
492,179	10,79
492,529	10,82
492,879	10,82
493,229	10,85
493,579	10,87
493,929	10,88
494,279	10,91
494,629	10,93
494,979	10,96
495,328	10,98
495,678	11,02
496,028	11,05
496,378	11,08
496,727	11,11
497,077	11,12
497,426	11,13
497,776	11,11
498,125	11,1
498,475	11,11
498,824	11,14
499,174	11,12
499,523	11,13
499,872	11,14
500,221	11,16
500,571	11,16
500,92	11,16
501,269	11,18
501,618	11,19
501,967	11,17
502,316	11,17
502,665	11,17
503,014	11,17
503,363	11,16
503,711	11,17
504,06	11,17
504,409	11,19
504,758	11,2
505,106	11,21
505,455	11,22
505,803	11,21
506,152	11,2
506,5	11,2
506,849	11,19
507,197	11,19
507,546	11,19
507,894	11,18
508,242	11,17
508,59	11,16
508,939	11,14
509,287	11,16
509,635	11,16
509,983	11,18
510,331	11,18
510,679	11,19
511,027	11,19
511,375	11,19
511,723	11,19
512,07	11,19
512,418	11,21
512,766	11,23
513,114	11,25
513,461	11,27
513,809	11,28
514,156	11,26
514,504	11,26
514,851	11,26
515,199	11,27
515,546	11,27
515,893	11,28
516,241	11,28
516,588	11,28
516,935	11,28
517,282	11,28
517,63	11,3
517,977	11,29
518,324	11,3
518,671	11,31
519,018	11,32
519,365	11,32
519,711	11,32
520,058	11,33
520,405	11,33
520,752	11,33
521,099	11,35
521,445	11,39
521,792	11,39
522,138	11,4
522,485	11,39
522,832	11,39
523,178	11,4
523,524	11,41
523,871	11,4
524,217	11,41
524,563	11,4
524,91	11,39
525,256	11,35
525,602	11,33
525,948	11,31
526,294	11,29
526,64	11,28
526,986	11,25
527,332	11,23
527,678	11,22
528,024	11,21
528,37	11,22
528,716	11,21
529,061	11,22
529,407	11,23
529,753	11,24
530,098	11,24
530,444	11,23
530,789	11,22
531,135	11,21
531,48	11,2
531,826	11,2
532,171	11,19
532,516	11,21
532,862	11,22
533,207	11,23
533,552	11,25
533,897	11,27
534,242	11,29
534,587	11,31
534,932	11,32
535,277	11,32
535,622	11,31
535,967	11,32
536,312	11,33
536,657	11,31
537,001	11,34
537,346	11,36
537,691	11,36
538,035	11,37
538,38	11,38
538,724	11,38
539,069	11,37
539,413	11,37
539,758	11,37
540,102	11,37
540,446	11,37
540,791	11,36
541,135	11,34
541,479	11,36
541,823	11,36
542,167	11,35
542,512	11,37
542,856	11,36
543,2	11,34
543,543	11,33
543,887	11,34
544,231	11,33
544,575	11,33
544,919	11,34
545,262	11,36
545,606	11,38
545,95	11,38
546,293	11,39
546,637	11,42
546,98	11,42
547,324	11,43
547,667	11,47
548,011	11,49
548,354	11,52
548,697	11,51
549,04	11,5
549,384	11,51
549,727	11,5
550,07	11,51
550,413	11,5
550,756	11,52
551,099	11,51
551,442	11,51
551,785	11,5
552,128	11,51
552,47	11,5
552,813	11,47
553,156	11,47
553,499	11,48
553,841	11,45
554,184	11,46
554,526	11,45
554,869	11,41
555,211	11,39
555,554	11,38
555,896	11,36
556,238	11,37
556,581	11,35
556,923	11,32
557,265	11,32
557,607	11,33
557,949	11,31
558,291	11,28
558,633	11,26
558,975	11,25
559,317	11,23
559,659	11,21
560,001	11,19
560,343	11,18
560,685	11,15
561,026	11,15
561,368	11,15
561,71	11,11
562,051	11,09
562,393	11,09
562,734	11,03
563,076	11,01
563,417	10,98
563,759	11,01
564,1	10,99
564,441	10,97
564,782	10,93
565,124	10,92
565,465	10,9
565,806	10,88
566,147	10,87
566,488	10,84
566,829	10,82
567,17	10,82
567,511	10,79
567,851	10,79
568,192	10,77
568,533	10,74
568,874	10,76
569,214	10,74
569,555	10,72
569,895	10,73
570,236	10,71
570,576	10,67
570,917	10,63
571,257	10,62
571,598	10,59
571,938	10,59
572,278	10,58
572,618	10,59
572,959	10,58
573,299	10,6
573,639	10,6
573,979	10,58
574,319	10,58
574,659	10,58
574,999	10,58
575,339	10,57
575,678	10,56
576,018	10,52
576,358	10,51
576,698	10,48
577,037	10,46
577,377	10,45
577,716	10,44
578,056	10,41
578,395	10,4
578,735	10,39
579,074	10,37
579,413	10,34
579,753	10,3
580,092	10,27
580,431	10,23
580,77	10,2
581,109	10,2
581,448	10,15
581,787	10,11
582,126	10,11
582,465	10,08
582,804	10,06
583,143	10,07
583,482	10,08
583,82	10,07
584,159	10,06
584,498	10,09
584,836	10,09
585,175	10,08
585,514	10,07
585,852	10,07
586,19	10,08
586,529	10,06
586,867	10,1
587,205	10,08
587,544	10,06
587,882	10,06
588,22	10,04
588,558	10,06
588,896	10,09
589,234	10,08
589,572	10,08
589,91	10,09
590,248	10,04
590,586	10,01
590,924	10,03
591,262	10,04
591,599	10,01
591,937	10,01
592,275	10,02
592,612	10,02
592,95	10,04
593,287	10,04
593,625	10,05
593,962	10,07
594,299	10,13
594,637	10,19
594,974	10,22
595,311	10,23
595,648	10,23
595,985	10,23
596,322	10,21
596,659	10,22
596,996	10,22
597,333	10,22
597,67	10,22
598,007	10,2
598,344	10,21
598,681	10,24
599,017	10,25
599,354	10,25
599,691	10,25
600,027	10,23
600,364	10,23
600,7	10,26
601,037	10,27
601,373	10,28
601,71	10,25
602,046	10,26
602,382	10,28
602,718	10,3
603,054	10,31
603,391	10,32
603,727	10,32
604,063	10,34
604,399	10,36
604,735	10,39
605,071	10,39
605,406	10,4
605,742	10,4
606,078	10,41
606,414	10,47
606,749	10,47
607,085	10,48
607,421	10,52
607,756	10,52
608,092	10,48
608,427	10,46
608,762	10,43
609,098	10,4
609,433	10,36
609,768	10,34
610,104	10,31
610,439	10,3
610,774	10,3
611,109	10,26
611,444	10,23
611,779	10,21
612,114	10,21
612,449	10,2
612,784	10,17
613,118	10,15
613,453	10,07
613,788	10,05
614,123	10,02
614,457	9,93
614,792	9,87
615,126	9,87
615,461	9,85
615,795	9,86
616,13	9,83
616,464	9,83
616,798	9,82
617,132	9,82
617,467	9,79
617,801	9,78
618,135	9,77
618,469	9,78
618,803	9,81
619,137	9,79
619,471	9,76
619,805	9,76
620,139	9,76
620,472	9,78
620,806	9,8
621,14	9,81
621,473	9,79
621,807	9,78
622,141	9,75
622,474	9,73
622,808	9,72
623,141	9,75
623,474	9,78
623,808	9,81
624,141	9,86
624,474	9,92
624,807	9,93
625,141	9,97
625,474	9,99
625,807	10,01
626,14	10,01
626,473	10,02
626,806	10,02
627,138	10,04
627,471	10,01
627,804	10
628,137	10,03
628,469	10,06
628,802	10,09
629,135	10,11
629,467	10,14
629,8	10,13
630,132	10,11
630,465	10,11
630,797	10,07
631,129	10,04
631,461	10,04
631,794	10,07
632,126	10,08
632,458	10,07
632,79	10,06
633,122	10,09
633,454	10,08
633,786	10,07
634,118	10,04
634,45	10,06
634,781	10,05
635,113	10,05
635,445	10,06
635,777	10,06
636,108	10,04
636,44	10,02
636,771	10,03
637,103	10,01
637,434	10
637,765	9,99
638,097	9,96
638,428	9,92
638,759	9,84
639,09	9,82
639,422	9,82
639,753	9,81
640,084	9,78
640,415	9,79
640,746	9,83
641,077	9,85
641,407	9,81
641,738	9,8
642,069	9,78
642,4	9,73
642,73	9,7
643,061	9,71
643,392	9,71
643,722	9,71
644,053	9,73
644,383	9,75
644,713	9,79
645,044	9,81
645,374	9,84
645,704	9,87
646,034	9,84
646,365	9,83
646,695	9,85
647,025	9,9
647,355	9,88
