Data from zc74010_5_Reflection_00001.txt Node
Date: Thu Mar 12 15:01:48 ART 2020
User: Ana
Spectrometer: USB2E3644
Trigger mode: 4
Integration Time (sec): 5,000000E-2
Scans to average: 10
Electric dark correction enabled: true
Nonlinearity correction enabled: false
Boxcar width: 10
XAxis mode: Wavelengths
Number of Pixels in Spectrum: 2048
>>>>>Begin Spectral Data<<<<<
178,315	75,19
178,696	79,84
179,076	85,98
179,457	77,98
179,838	83,81
180,218	110,37
180,599	177,78
180,979	67,74
181,36	194,44
181,74	158,64
182,121	128,33
182,501	114,04
182,881	111,41
183,262	105,9
183,642	100,51
184,022	94,37
184,402	93,12
184,783	93,21
185,163	92,52
185,543	95,72
185,923	97,4
186,303	98,91
186,683	99,85
187,063	102,79
187,443	104,83
187,823	106,47
188,203	107,92
188,583	108,83
188,963	108,33
189,343	107,88
189,723	108,19
190,102	111,47
190,482	116,73
190,862	118,5
191,242	120,25
191,621	120,56
192,001	121,58
192,38	123,16
192,76	122,85
193,14	124,32
193,519	124,89
193,898	125,72
194,278	126,52
194,657	127,75
195,037	126,85
195,416	122,84
195,795	120,41
196,175	118,58
196,554	117,12
196,933	116,79
197,312	115,88
197,692	114,89
198,071	113,58
198,45	112,45
198,829	112,26
199,208	112,01
199,587	111,67
199,966	111,1
200,345	109,58
200,724	109,59
201,103	109,35
201,482	109,64
201,86	110,14
202,239	108,2
202,618	107,48
202,997	108,18
203,375	109,82
203,754	111,28
204,133	112,84
204,511	113,28
204,89	112,99
205,269	113,31
205,647	113,18
206,026	112,69
206,404	112,17
206,782	111,47
207,161	110,79
207,539	109,99
207,918	109,82
208,296	110,28
208,674	110,35
209,052	110,05
209,431	109,79
209,809	109,73
210,187	111,63
210,565	111,84
210,943	111,08
211,321	110,88
211,699	111,71
212,077	112,75
212,455	113,33
212,833	114,49
213,211	115,84
213,589	116,47
213,967	116,39
214,345	116,36
214,722	116,91
215,1	117,29
215,478	118,44
215,855	119,52
216,233	120,29
216,611	121,96
216,988	122,97
217,366	122,63
217,743	122,96
218,121	123,51
218,498	125,16
218,876	125,65
219,253	124,98
219,631	123,5
220,008	122,06
220,385	121,41
220,762	120,04
221,14	117,45
221,517	115,58
221,894	114,83
222,271	113,54
222,648	112,68
223,025	112,1
223,402	111,82
223,78	111,73
224,157	111,59
224,533	110,2
224,91	110,32
225,287	112
225,664	113,13
226,041	113,01
226,418	112,4
226,795	112,15
227,171	111,87
227,548	112,76
227,925	113,49
228,301	114,75
228,678	117,24
229,055	120,2
229,431	122,79
229,808	124,95
230,184	126,65
230,561	128,66
230,937	131,59
231,313	133,96
231,69	135,62
232,066	138,2
232,442	139,62
232,819	139,72
233,195	139,03
233,571	139,3
233,947	141,39
234,323	143,48
234,699	145,94
235,075	148,72
235,451	151,25
235,827	153,88
236,203	156,04
236,579	157,82
236,955	161,47
237,331	169,57
237,707	180,58
238,083	194,46
238,459	210,54
238,834	236,29
239,21	279,07
239,586	335,27
239,961	395,18
240,337	463,97
240,713	525,47
241,088	594,2
241,464	680,19
241,839	793,56
242,215	1045,03
242,59	2437,41
242,965	-1497,92
243,341	-424,85
243,716	-227,51
244,091	-162,13
244,467	-132,99
244,842	-116,7
245,217	-105,96
245,592	-100,9
245,967	-100,71
246,343	-98,53
246,718	-96,97
247,093	-98,6
247,468	-101,23
247,843	-101,74
248,218	-97,96
248,593	-91,75
248,967	-84,66
249,342	-80,73
249,717	-78,86
250,092	-78,17
250,467	-79,36
250,841	-84,09
251,216	-96,5
251,591	-117,96
251,965	-141,67
252,34	-160,83
252,714	-180,9
253,089	-195,48
253,463	-205,34
253,838	-202,37
254,212	-196,36
254,587	-186,09
254,961	-165,08
255,335	-140,65
255,71	-116,1
256,084	-90,63
256,458	-72,27
256,832	-61,57
257,206	-55,77
257,581	-53,01
257,955	-51,36
258,329	-49,6
258,703	-47,4
259,077	-45,07
259,451	-42,91
259,825	-41,84
260,199	-42
260,572	-41,7
260,946	-41,66
261,32	-41,28
261,694	-40,76
262,068	-40,56
262,441	-40,24
262,815	-40,16
263,189	-39,98
263,562	-40,63
263,936	-43,53
264,309	-47,84
264,683	-52,61
265,056	-55,07
265,43	-55,92
265,803	-55,89
266,176	-55,33
266,55	-55,27
266,923	-54,93
267,296	-54,21
267,67	-52,45
268,043	-50,29
268,416	-47,17
268,789	-44,03
269,162	-41,21
269,535	-38,67
269,908	-36,65
270,281	-35,51
270,654	-35,29
271,027	-35,58
271,4	-35,77
271,773	-35,55
272,146	-35,34
272,519	-35,1
272,891	-35,03
273,264	-35,03
273,637	-34,99
274,01	-34,86
274,382	-35,4
274,755	-35,81
275,127	-36,15
275,5	-36,53
275,872	-36,51
276,245	-37,05
276,617	-38,17
276,99	-38,96
277,362	-40,14
277,734	-41,01
278,107	-41,13
278,479	-40,9
278,851	-40,52
279,223	-39,98
279,596	-39,28
279,968	-39
280,34	-38,34
280,712	-37,41
281,084	-35,93
281,456	-34,39
281,828	-32,77
282,2	-30,41
282,572	-28,6
282,944	-27,26
283,315	-26,36
283,687	-25,68
284,059	-25,28
284,431	-24,92
284,802	-24,5
285,174	-24,07
285,546	-23,72
285,917	-23,14
286,289	-22,6
286,66	-22,15
287,032	-21,61
287,403	-21,35
287,775	-21,12
288,146	-21,21
288,518	-21,5
288,889	-21,65
289,26	-21,74
289,632	-22,31
290,003	-23,08
290,374	-23,57
290,745	-23,86
291,116	-23,97
291,487	-24,07
291,858	-23,89
292,229	-23,52
292,6	-23,11
292,971	-22,34
293,342	-21,4
293,713	-20,54
294,084	-19,79
294,455	-19,13
294,826	-18,91
295,196	-18,93
295,567	-19,1
295,938	-19,02
296,308	-18,79
296,679	-18,6
297,05	-18,43
297,42	-17,98
297,791	-17,53
298,161	-17,25
298,532	-16,84
298,902	-16,52
299,272	-16,28
299,643	-16,18
300,013	-15,83
300,383	-15,56
300,754	-15,57
301,124	-15,83
301,494	-16,19
301,864	-16,5
302,234	-16,77
302,604	-16,79
302,974	-16,61
303,344	-16,2
303,714	-15,83
304,084	-15,43
304,454	-15,12
304,824	-14,93
305,194	-14,89
305,563	-14,81
305,933	-14,66
306,303	-14,51
306,673	-14,25
307,042	-13,82
307,412	-13,24
307,781	-12,85
308,151	-12,65
308,521	-12,55
308,89	-12,41
309,259	-12,38
309,629	-12,34
309,998	-12,31
310,368	-12,29
310,737	-12,19
311,106	-12,11
311,475	-11,93
311,845	-11,91
312,214	-11,97
312,583	-11,93
312,952	-11,91
313,321	-11,84
313,69	-11,63
314,059	-11,59
314,428	-11,67
314,797	-11,89
315,166	-12,27
315,535	-12,68
315,904	-13
316,272	-13,24
316,641	-13,44
317,01	-13,46
317,379	-13,38
317,747	-13,15
318,116	-12,87
318,484	-12,64
318,853	-12,52
319,221	-12,56
319,59	-12,69
319,958	-12,56
320,327	-12,38
320,695	-12,26
321,063	-12,16
321,432	-12,01
321,8	-11,73
322,168	-11,44
322,536	-11,16
322,905	-10,66
323,273	-10,26
323,641	-9,92
324,009	-9,58
324,377	-9,32
324,745	-9,11
325,113	-8,82
325,481	-8,54
325,849	-8,36
326,216	-8,23
326,584	-8,02
326,952	-7,8
327,32	-7,47
327,687	-7,27
328,055	-7
328,423	-6,74
328,79	-6,62
329,158	-6,63
329,525	-6,67
329,893	-6,68
330,26	-6,61
330,628	-6,65
330,995	-6,65
331,362	-6,68
331,73	-6,69
332,097	-6,62
332,464	-6,52
332,831	-6,49
333,199	-6,5
333,566	-6,38
333,933	-6,14
334,3	-5,89
334,667	-5,73
335,034	-5,61
335,401	-5,6
335,768	-5,66
336,135	-5,68
336,502	-5,65
336,868	-5,56
337,235	-5,53
337,602	-5,42
337,969	-5,24
338,335	-5,09
338,702	-4,89
339,069	-4,68
339,435	-4,53
339,802	-4,35
340,168	-4,23
340,535	-4,12
340,901	-4,13
341,267	-4,14
341,634	-4,15
342	-4,23
342,366	-4,27
342,733	-4,34
343,099	-4,28
343,465	-4,24
343,831	-4,22
344,197	-4,12
344,563	-4,04
344,929	-3,91
345,295	-3,74
345,661	-3,63
346,027	-3,59
346,393	-3,62
346,759	-3,61
347,125	-3,61
347,491	-3,63
347,856	-3,64
348,222	-3,7
348,588	-3,54
348,953	-3,37
349,319	-3,37
349,684	-3,36
350,05	-3,28
350,415	-3,14
350,781	-3,03
351,146	-2,88
351,512	-2,7
351,877	-2,66
352,242	-2,66
352,608	-2,63
352,973	-2,62
353,338	-2,63
353,703	-2,55
354,068	-2,5
354,433	-2,43
354,798	-2,32
355,164	-2,23
355,528	-2,12
355,893	-1,99
356,258	-1,98
356,623	-1,94
356,988	-1,78
357,353	-1,63
357,718	-1,56
358,082	-1,49
358,447	-1,44
358,812	-1,38
359,176	-1,33
359,541	-1,2
359,905	-1,05
360,27	-0,98
360,634	-0,91
360,999	-0,79
361,363	-0,7
361,728	-0,55
362,092	-0,47
362,456	-0,4
362,821	-0,28
363,185	-0,16
363,549	-0,05
363,913	0,03
364,277	0,07
364,641	0,07
365,005	0,11
365,369	0,2
365,733	0,33
366,097	0,47
366,461	0,57
366,825	0,63
367,189	0,62
367,553	0,67
367,916	0,8
368,28	0,91
368,644	0,93
369,007	0,99
369,371	1,03
369,734	1,1
370,098	1,2
370,461	1,25
370,825	1,28
371,188	1,34
371,552	1,42
371,915	1,48
372,278	1,59
372,642	1,67
373,005	1,73
373,368	1,81
373,731	1,86
374,094	1,92
374,457	2,02
374,82	2,16
375,183	2,23
375,546	2,29
375,909	2,34
376,272	2,44
376,635	2,52
376,998	2,59
377,361	2,66
377,723	2,73
378,086	2,81
378,449	2,88
378,811	2,94
379,174	3,01
379,537	3,1
379,899	3,15
380,262	3,21
380,624	3,28
380,987	3,33
381,349	3,4
381,711	3,48
382,074	3,55
382,436	3,61
382,798	3,71
383,16	3,75
383,522	3,81
383,884	3,85
384,247	3,88
384,609	3,94
384,971	3,99
385,333	4
385,695	4
386,056	4,04
386,418	4,06
386,78	4,08
387,142	4,09
387,504	4,13
387,865	4,19
388,227	4,23
388,589	4,26
388,95	4,27
389,312	4,26
389,673	4,27
390,035	4,27
390,396	4,24
390,758	4,27
391,119	4,26
391,48	4,27
391,842	4,28
392,203	4,26
392,564	4,24
392,925	4,27
393,286	4,28
393,648	4,3
394,009	4,33
394,37	4,35
394,731	4,37
395,092	4,37
395,452	4,39
395,813	4,42
396,174	4,42
396,535	4,43
396,896	4,47
397,257	4,52
397,617	4,59
397,978	4,66
398,338	4,71
398,699	4,76
399,06	4,84
399,42	4,89
399,781	4,95
400,141	5
400,501	5,02
400,862	5,05
401,222	5,08
401,582	5,09
401,943	5,14
402,303	5,16
402,663	5,18
403,023	5,18
403,383	5,18
403,743	5,23
404,103	5,26
404,463	5,29
404,823	5,33
405,183	5,34
405,543	5,35
405,903	5,36
406,262	5,35
406,622	5,32
406,982	5,33
407,342	5,36
407,701	5,4
408,061	5,45
408,42	5,5
408,78	5,55
409,139	5,56
409,499	5,59
409,858	5,63
410,217	5,68
410,577	5,71
410,936	5,73
411,295	5,71
411,655	5,71
412,014	5,68
412,373	5,65
412,732	5,6
413,091	5,55
413,45	5,51
413,809	5,45
414,168	5,36
414,527	5,27
414,886	5,17
415,245	5,09
415,603	5,02
415,962	4,92
416,321	4,84
416,679	4,76
417,038	4,66
417,397	4,56
417,755	4,47
418,114	4,41
418,472	4,37
418,831	4,34
419,189	4,3
419,547	4,26
419,906	4,21
420,264	4,15
420,622	4,11
420,981	4,07
421,339	4,07
421,697	4,08
422,055	4,09
422,413	4,11
422,771	4,12
423,129	4,14
423,487	4,17
423,845	4,2
424,203	4,25
424,56	4,31
424,918	4,37
425,276	4,43
425,634	4,47
425,991	4,52
426,349	4,56
426,707	4,61
427,064	4,67
427,422	4,73
427,779	4,82
428,137	4,92
428,494	5,03
428,851	5,09
429,209	5,11
429,566	5,11
429,923	5,12
430,28	5,1
430,637	5,08
430,995	5,07
431,352	5,07
431,709	5,05
432,066	5,06
432,423	5,07
432,78	5,07
433,137	5,08
433,493	5,07
433,85	5,08
434,207	5,07
434,564	5,06
434,92	5,06
435,277	5,04
435,634	5,01
435,99	4,97
436,347	4,93
436,703	4,94
437,06	4,93
437,416	4,92
437,773	4,93
438,129	4,92
438,485	4,94
438,841	4,94
439,198	4,94
439,554	4,95
439,91	4,97
440,266	4,98
440,622	4,98
440,978	4,97
441,334	4,93
441,69	4,9
442,046	4,87
442,402	4,82
442,758	4,8
443,113	4,77
443,469	4,76
443,825	4,77
444,181	4,78
444,536	4,82
444,892	4,85
445,247	4,88
445,603	4,9
445,958	4,91
446,314	4,93
446,669	4,95
447,025	4,96
447,38	4,96
447,735	4,98
448,09	5,01
448,446	5,04
448,801	5,07
449,156	5,11
449,511	5,19
449,866	5,28
450,221	5,38
450,576	5,47
450,931	5,57
451,286	5,64
451,641	5,71
451,995	5,76
452,35	5,81
452,705	5,86
453,06	5,9
453,414	5,94
453,769	5,98
454,123	5,98
454,478	5,97
454,832	5,96
455,187	5,91
455,541	5,85
455,896	5,79
456,25	5,72
456,604	5,66
456,958	5,6
457,313	5,54
457,667	5,52
458,021	5,52
458,375	5,53
458,729	5,55
459,083	5,56
459,437	5,57
459,791	5,58
460,145	5,59
460,499	5,6
460,852	5,6
461,206	5,59
461,56	5,59
461,914	5,61
462,267	5,63
462,621	5,68
462,974	5,72
463,328	5,78
463,681	5,86
464,035	5,95
464,388	6,03
464,742	6,11
465,095	6,14
465,448	6,16
465,801	6,18
466,155	6,19
466,508	6,2
466,861	6,2
467,214	6,19
467,567	6,19
467,92	6,2
468,273	6,22
468,626	6,24
468,979	6,25
469,332	6,25
469,684	6,25
470,037	6,26
470,39	6,31
470,743	6,37
471,095	6,43
471,448	6,48
471,8	6,54
472,153	6,59
472,505	6,64
472,858	6,67
473,21	6,71
473,562	6,74
473,915	6,77
474,267	6,8
474,619	6,82
474,971	6,83
475,324	6,83
475,676	6,85
476,028	6,87
476,38	6,91
476,732	6,93
477,084	6,95
477,436	6,95
477,787	6,93
478,139	6,89
478,491	6,85
478,843	6,8
479,195	6,71
479,546	6,54
479,898	6,29
480,249	6
480,601	5,73
480,952	5,54
481,304	5,42
481,655	5,34
482,007	5,28
482,358	5,24
482,709	5,22
483,061	5,17
483,412	5,13
483,763	5,08
484,114	5,03
484,465	4,99
484,816	4,95
485,167	4,93
485,518	4,92
485,869	4,92
486,22	4,93
486,571	4,95
486,922	4,99
487,272	5,05
487,623	5,14
487,974	5,23
488,324	5,31
488,675	5,37
489,025	5,41
489,376	5,46
489,726	5,5
490,077	5,55
490,427	5,62
490,778	5,71
491,128	5,82
491,478	5,95
491,828	6,09
492,179	6,23
492,529	6,35
492,879	6,43
493,229	6,5
493,579	6,54
493,929	6,56
494,279	6,6
494,629	6,66
494,979	6,78
495,328	6,93
495,678	7,12
496,028	7,29
496,378	7,45
496,727	7,58
497,077	7,67
497,426	7,74
497,776	7,76
498,125	7,77
498,475	7,79
498,824	7,81
499,174	7,83
499,523	7,85
499,872	7,88
500,221	7,94
500,571	7,96
500,92	8,01
501,269	8,07
501,618	8,13
501,967	8,2
502,316	8,25
502,665	8,31
503,014	8,36
503,363	8,41
503,711	8,44
504,06	8,45
504,409	8,45
504,758	8,43
505,106	8,41
505,455	8,41
505,803	8,4
506,152	8,36
506,5	8,35
506,849	8,36
507,197	8,36
507,546	8,37
507,894	8,4
508,242	8,42
508,59	8,42
508,939	8,38
509,287	8,36
509,635	8,35
509,983	8,35
510,331	8,35
510,679	8,36
511,027	8,37
511,375	8,4
511,723	8,45
512,07	8,51
512,418	8,59
512,766	8,64
513,114	8,67
513,461	8,71
513,809	8,72
514,156	8,7
514,504	8,65
514,851	8,58
515,199	8,5
515,546	8,43
515,893	8,39
516,241	8,38
516,588	8,37
516,935	8,39
517,282	8,39
517,63	8,43
517,977	8,45
518,324	8,47
518,671	8,47
519,018	8,49
519,365	8,5
519,711	8,52
520,058	8,55
520,405	8,6
520,752	8,65
521,099	8,68
521,445	8,72
521,792	8,76
522,138	8,79
522,485	8,8
522,832	8,85
523,178	8,85
523,524	8,86
523,871	8,84
524,217	8,77
524,563	8,59
524,91	8,32
525,256	8,02
525,602	7,78
525,948	7,62
526,294	7,5
526,64	7,41
526,986	7,33
527,332	7,29
527,678	7,25
528,024	7,23
528,37	7,23
528,716	7,23
529,061	7,22
529,407	7,21
529,753	7,19
530,098	7,17
530,444	7,15
530,789	7,15
531,135	7,16
531,48	7,18
531,826	7,26
532,171	7,39
532,516	7,56
532,862	7,73
533,207	7,87
533,552	7,97
533,897	8,08
534,242	8,16
534,587	8,23
534,932	8,3
535,277	8,35
535,622	8,4
535,967	8,48
536,312	8,57
536,657	8,68
537,001	8,79
537,346	8,88
537,691	8,87
538,035	8,79
538,38	8,7
538,724	8,6
539,069	8,55
539,413	8,49
539,758	8,46
540,102	8,46
540,446	8,49
540,791	8,52
541,135	8,55
541,479	8,58
541,823	8,6
542,167	8,59
542,512	8,61
542,856	8,59
543,2	8,58
543,543	8,55
543,887	8,55
544,231	8,59
544,575	8,67
544,919	8,83
545,262	9,05
545,606	9,28
545,95	9,5
546,293	9,7
546,637	9,91
546,98	10,1
547,324	10,28
547,667	10,46
548,011	10,61
548,354	10,73
548,697	10,81
549,04	10,89
549,384	10,95
549,727	11
550,07	11,11
550,413	11,21
550,756	11,38
551,099	11,54
551,442	11,67
551,785	11,81
552,128	11,91
552,47	11,99
552,813	12,04
553,156	12,1
553,499	12,13
553,841	12,16
554,184	12,18
554,526	12,17
554,869	12,18
555,211	12,2
555,554	12,21
555,896	12,27
556,238	12,34
556,581	12,42
556,923	12,53
557,265	12,58
557,607	12,66
557,949	12,67
558,291	12,67
558,633	12,7
558,975	12,69
559,317	12,69
559,659	12,68
560,001	12,68
560,343	12,66
560,685	12,67
561,026	12,67
561,368	12,67
561,71	12,66
562,051	12,59
562,393	12,53
562,734	12,46
563,076	12,39
563,417	12,32
563,759	12,27
564,1	12,22
564,441	12,21
564,782	12,18
565,124	12,16
565,465	12,15
565,806	12,11
566,147	12,1
566,488	12,09
566,829	12,07
567,17	12,07
567,511	12,05
567,851	12
568,192	11,93
568,533	11,86
568,874	11,81
569,214	11,82
569,555	11,8
569,895	11,83
570,236	11,87
570,576	11,89
570,917	11,9
571,257	11,91
571,598	11,88
571,938	11,85
572,278	11,86
572,618	11,86
572,959	11,89
573,299	11,9
573,639	11,89
573,979	11,9
574,319	11,91
574,659	11,94
574,999	11,98
575,339	12,06
575,678	12,17
576,018	12,27
576,358	12,38
576,698	12,52
577,037	12,63
577,377	12,72
577,716	12,82
578,056	12,92
578,395	13,03
578,735	13,2
579,074	13,32
579,413	13,45
579,753	13,57
580,092	13,66
580,431	13,75
580,77	13,85
581,109	13,94
581,448	14,03
581,787	14,13
582,126	14,2
582,465	14,25
582,804	14,31
583,143	14,37
583,482	14,39
583,82	14,39
584,159	14,42
584,498	14,43
584,836	14,46
585,175	14,45
585,514	14,43
585,852	14,36
586,19	14,34
586,529	14,28
586,867	14,24
587,205	14,21
587,544	14,2
587,882	14,15
588,22	14,14
588,558	14,14
588,896	14,16
589,234	14,19
589,572	14,2
589,91	14,17
590,248	14,16
590,586	14,17
590,924	14,15
591,262	14,14
591,599	14,16
591,937	14,17
592,275	14,2
592,612	14,24
592,95	14,26
593,287	14,22
593,625	14,16
593,962	14,09
594,299	14,01
594,637	13,98
594,974	14,01
595,311	14,02
595,648	14,05
595,985	14,06
596,322	14,08
596,659	14,13
596,996	14,19
597,333	14,24
597,67	14,3
598,007	14,36
598,344	14,43
598,681	14,49
599,017	14,52
599,354	14,53
599,691	14,56
600,027	14,59
600,364	14,65
600,7	14,73
601,037	14,78
601,373	14,81
601,71	14,79
602,046	14,77
602,382	14,75
602,718	14,72
603,054	14,73
603,391	14,71
603,727	14,72
604,063	14,74
604,399	14,77
604,735	14,82
605,071	14,84
605,406	14,82
605,742	14,75
606,078	14,69
606,414	14,67
606,749	14,64
607,085	14,67
607,421	14,74
607,756	14,81
608,092	14,9
608,427	15,05
608,762	15,22
609,098	15,38
609,433	15,51
609,768	15,63
610,104	15,74
610,439	15,83
610,774	15,89
611,109	15,94
611,444	15,99
611,779	16
612,114	16,05
612,449	16,17
612,784	16,33
613,118	16,55
613,453	16,77
613,788	16,98
614,123	17,1
614,457	17,22
614,792	17,33
615,126	17,49
615,461	17,58
615,795	17,68
616,13	17,66
616,464	17,7
616,798	17,74
617,132	17,75
617,467	17,77
617,801	17,82
618,135	17,89
618,469	17,96
618,803	18,03
619,137	18,09
619,471	18,14
619,805	18,18
620,139	18,23
620,472	18,27
620,806	18,32
621,14	18,42
621,473	18,5
621,807	18,53
622,141	18,57
622,474	18,55
622,808	18,56
623,141	18,57
623,474	18,46
623,808	18,36
624,141	18,31
624,474	18,24
624,807	18,17
625,141	18,11
625,474	18,07
625,807	18,03
626,14	18
626,473	17,96
626,806	17,96
627,138	17,94
627,471	17,92
627,804	17,92
628,137	17,94
628,469	17,92
628,802	17,99
629,135	18,04
629,467	18,15
629,8	18,2
630,132	18,3
630,465	18,44
630,797	18,59
631,129	18,7
631,461	18,82
631,794	18,94
632,126	19
632,458	19,08
632,79	19,18
633,122	19,29
633,454	19,38
633,786	19,44
634,118	19,53
634,45	19,65
634,781	19,74
635,113	19,8
635,445	19,94
635,777	20,01
636,108	20,09
636,44	20,13
636,771	20,22
637,103	20,33
637,434	20,44
637,765	20,54
638,097	20,66
638,428	20,79
638,759	20,88
639,09	21,05
639,422	21,22
639,753	21,35
640,084	21,46
640,415	21,56
640,746	21,67
641,077	21,79
641,407	21,89
641,738	21,96
642,069	22,03
642,4	22,06
642,73	22,09
643,061	22,08
643,392	22,15
643,722	22,18
644,053	22,18
644,383	22,16
644,713	22,16
645,044	22,16
645,374	22,16
645,704	22,18
646,034	22,13
646,365	22,09
646,695	22,1
647,025	22,1
647,355	22,07
647,685	22,05
648,015	21,95
648,344	21,91
648,674	21,89
649,004	21,89
649,334	21,9
649,663	21,94
649,993	21,99
650,323	22
650,652	22,02
650,982	22,08
651,311	22,18
651,64	22,24
651,97	22,29
652,299	22,28
652,628	22,27
652,958	22,3
653,287	22,31
653,616	22,26
653,945	22,25
654,274	22,32
654,603	22,36
