Data from zc74010_4_Reflection_00001.txt Node
Date: Thu Mar 12 15:01:12 ART 2020
User: Ana
Spectrometer: USB2E3644
Trigger mode: 4
Integration Time (sec): 5,000000E-2
Scans to average: 10
Electric dark correction enabled: true
Nonlinearity correction enabled: false
Boxcar width: 10
XAxis mode: Wavelengths
Number of Pixels in Spectrum: 2048
>>>>>Begin Spectral Data<<<<<
178,315	104,21
178,696	115,12
179,076	124,1
179,457	113,58
179,838	131,43
180,218	191,11
180,599	633,33
180,979	83,87
181,36	283,33
181,74	164,81
182,121	125
182,501	112,5
182,881	112,3
183,262	107,96
183,642	107,28
184,022	108,45
184,402	109,84
184,783	109,28
185,163	107,3
185,543	108,23
185,923	108,52
186,303	109,35
186,683	109,95
187,063	111,31
187,443	112,67
187,823	115,53
188,203	116,59
188,583	115,97
188,963	115,7
189,343	115,82
189,723	117,96
190,102	123,57
190,482	128,74
190,862	129,85
191,242	130,09
191,621	128,24
192,001	127,16
192,38	126,55
192,76	126,29
193,14	127,85
193,519	127,87
193,898	128,03
194,278	128,95
194,657	129,98
195,037	129,9
195,416	127,35
195,795	126,54
196,175	126,73
196,554	126,06
196,933	124,64
197,312	123,05
197,692	121,11
198,071	118,17
198,45	116,41
198,829	116,96
199,208	118,46
199,587	119,54
199,966	119,85
200,345	119,51
200,724	120,06
201,103	120,73
201,482	122,23
201,86	123,3
202,239	121,57
202,618	120,75
202,997	120,78
203,375	121,49
203,754	121,18
204,133	120,83
204,511	121,33
204,89	122,49
205,269	123,14
205,647	123,21
206,026	123,84
206,404	124,48
206,782	123,77
207,161	123,2
207,539	122,09
207,918	121,94
208,296	122,69
208,674	122,22
209,052	121,73
209,431	120,93
209,809	119,9
210,187	120,39
210,565	120,6
210,943	120,43
211,321	120,04
211,699	120,75
212,077	121,43
212,455	120,78
212,833	119,91
213,211	119,25
213,589	119,06
213,967	118,45
214,345	117,42
214,722	117,42
215,1	117,37
215,478	118,29
215,855	119,6
216,233	119,91
216,611	120,53
216,988	120,14
217,366	119,72
217,743	120,87
218,121	122,21
218,498	123,48
218,876	123,63
219,253	122,86
219,631	121,18
220,008	119,55
220,385	119,01
220,762	118,54
221,14	118,2
221,517	118,31
221,894	118,87
222,271	119,32
222,648	119,03
223,025	118,31
223,402	117,47
223,78	116,49
224,157	116,65
224,533	117,01
224,91	118,68
225,287	121,37
225,664	123,27
226,041	124,54
226,418	125,7
226,795	126,75
227,171	127,32
227,548	128,72
227,925	130,1
228,301	131,84
228,678	134,18
229,055	136,15
229,431	137,34
229,808	138,13
230,184	138,78
230,561	140,44
230,937	142,98
231,313	144,93
231,69	146,07
232,066	146,88
232,442	147,15
232,819	146,44
233,195	143,92
233,571	143,08
233,947	144,62
234,323	146,5
234,699	148,76
235,075	151,19
235,451	153,61
235,827	156,52
236,203	157,94
236,579	159,48
236,955	163,44
237,331	172,05
237,707	184,25
238,083	198,72
238,459	215,64
238,834	243,16
239,21	288,13
239,586	348,48
239,961	413,82
240,337	485,77
240,713	552,84
241,088	633,33
241,464	728,57
241,839	854,67
242,215	1134,21
242,59	2651,02
242,965	-1618,75
243,341	-457,95
243,716	-247,22
244,091	-177,47
244,467	-146,43
244,842	-128,24
245,217	-115,77
245,592	-108,75
245,967	-106,94
246,343	-103,49
246,718	-100,91
247,093	-102,27
247,468	-104,54
247,843	-105,04
248,218	-101,9
248,593	-95,13
248,967	-87,22
249,342	-82,76
249,717	-79,97
250,092	-78,21
250,467	-78,87
250,841	-84,2
251,216	-96,31
251,591	-116,49
251,965	-139,11
252,34	-156,99
252,714	-176,46
253,089	-190,38
253,463	-200,33
253,838	-198,35
254,212	-193,09
254,587	-183,61
254,961	-162,86
255,335	-139,08
255,71	-114,8
256,084	-88,85
256,458	-70,29
256,832	-59,56
257,206	-53,66
257,581	-50,74
257,955	-48,7
258,329	-46,45
258,703	-44,05
259,077	-42,43
259,451	-40,87
259,825	-40,4
260,199	-40,65
260,572	-40,09
260,946	-39,95
261,32	-39,55
261,694	-38,88
262,068	-38,56
262,441	-38,16
262,815	-38,06
263,189	-37,68
263,562	-38,06
263,936	-40,5
264,309	-44,18
264,683	-48,35
265,056	-50,57
265,43	-51,36
265,803	-51,46
266,176	-50,87
266,55	-50,58
266,923	-49,65
267,296	-48,21
267,67	-45,54
268,043	-43,09
268,416	-40,59
268,789	-37,92
269,162	-35,37
269,535	-33,48
269,908	-31,88
270,281	-30,87
270,654	-30,84
271,027	-31,3
271,4	-31,68
271,773	-31,6
272,146	-31,7
272,519	-31,82
272,891	-32,02
273,264	-32,16
273,637	-32,04
274,01	-31,95
274,382	-32,42
274,755	-32,75
275,127	-33,02
275,5	-33,36
275,872	-33,39
276,245	-33,71
276,617	-34,44
276,99	-35,09
277,362	-35,82
277,734	-36,51
278,107	-36,33
278,479	-35,66
278,851	-35,04
279,223	-34,32
279,596	-33,78
279,968	-33,65
280,34	-33,26
280,712	-32,56
281,084	-31,31
281,456	-29,81
281,828	-28,41
282,2	-26,32
282,572	-24,52
282,944	-23,23
283,315	-22,42
283,687	-21,91
284,059	-21,62
284,431	-21,37
284,802	-20,99
285,174	-20,55
285,546	-20
285,917	-19,4
286,289	-18,91
286,66	-18,54
287,032	-17,96
287,403	-17,47
287,775	-17,17
288,146	-17,12
288,518	-17,16
288,889	-16,97
289,26	-17,09
289,632	-17,57
290,003	-18,09
290,374	-18,45
290,745	-18,67
291,116	-18,79
291,487	-18,77
291,858	-18,57
292,229	-18,25
292,6	-17,8
292,971	-16,98
293,342	-16,19
293,713	-15,38
294,084	-14,55
294,455	-13,6
294,826	-13,05
295,196	-12,92
295,567	-13,04
295,938	-12,83
296,308	-12,55
296,679	-12,41
297,05	-12,16
297,42	-11,81
297,791	-11,44
298,161	-11,28
298,532	-10,92
298,902	-10,63
299,272	-10,3
299,643	-9,96
300,013	-9,46
300,383	-9,1
300,754	-9,05
301,124	-9,14
301,494	-9,35
301,864	-9,56
302,234	-9,81
302,604	-9,97
302,974	-9,79
303,344	-9,19
303,714	-8,69
304,084	-8,24
304,454	-7,94
304,824	-7,66
305,194	-7,39
305,563	-7,27
305,933	-7,01
306,303	-6,72
306,673	-6,25
307,042	-5,69
307,412	-5,18
307,781	-4,75
308,151	-4,43
308,521	-4,2
308,89	-3,95
309,259	-3,9
309,629	-3,88
309,998	-3,83
310,368	-3,75
310,737	-3,61
311,106	-3,53
311,475	-3,39
311,845	-3,29
312,214	-3,16
312,583	-3,12
312,952	-3,04
313,321	-2,82
313,69	-2,47
314,059	-2,34
314,428	-2,29
314,797	-2,3
315,166	-2,43
315,535	-2,6
315,904	-2,84
316,272	-3,06
316,641	-3,19
317,01	-3,04
317,379	-2,81
317,747	-2,41
318,116	-2,02
318,484	-1,67
318,853	-1,29
319,221	-1,01
319,59	-0,91
319,958	-0,67
320,327	-0,35
320,695	-0,21
321,063	-0,03
321,432	0,23
321,8	0,64
322,168	0,95
322,536	1,12
322,905	1,59
323,273	1,88
323,641	2,28
324,009	2,77
324,377	3,06
324,745	3,27
325,113	3,52
325,481	3,81
325,849	4
326,216	4,18
326,584	4,32
326,952	4,4
327,32	4,64
327,687	4,89
328,055	5,17
328,423	5,45
328,79	5,52
329,158	5,51
329,525	5,49
329,893	5,53
330,26	5,64
330,628	5,66
330,995	5,79
331,362	5,84
331,73	5,78
332,097	5,87
332,464	6,02
332,831	6,15
333,199	6,1
333,566	6,18
333,933	6,36
334,3	6,6
334,667	6,81
335,034	6,99
335,401	7,08
335,768	7,24
336,135	7,55
336,502	7,82
336,868	8,05
337,235	8,23
337,602	8,43
337,969	8,67
338,335	8,93
338,702	9,23
339,069	9,46
339,435	9,67
339,802	9,91
340,168	10,08
340,535	10,27
340,901	10,45
341,267	10,58
341,634	10,71
342	10,77
342,366	10,98
342,733	11,13
343,099	11,3
343,465	11,28
343,831	11,18
344,197	11,26
344,563	11,28
344,929	11,32
345,295	11,48
345,661	11,66
346,027	11,75
346,393	11,78
346,759	11,9
347,125	12,06
347,491	12,12
347,856	12,21
348,222	12,23
348,588	12,29
348,953	12,41
349,319	12,4
349,684	12,43
350,05	12,49
350,415	12,63
350,781	12,74
351,146	12,89
351,512	13,09
351,877	13,18
352,242	13,36
352,608	13,54
352,973	13,63
353,338	13,69
353,703	13,77
354,068	13,79
354,433	13,81
354,798	13,94
355,164	14,08
355,528	14,27
355,893	14,42
356,258	14,56
356,623	14,77
356,988	14,98
357,353	15,18
357,718	15,33
358,082	15,43
358,447	15,49
358,812	15,67
359,176	15,78
359,541	15,91
359,905	15,96
360,27	16,05
360,634	16,15
360,999	16,22
361,363	16,32
361,728	16,46
362,092	16,64
362,456	16,69
362,821	16,79
363,185	16,89
363,549	16,98
363,913	17,04
364,277	17,05
364,641	17,05
365,005	17,14
365,369	17,15
365,733	17,19
366,097	17,29
366,461	17,32
366,825	17,39
367,189	17,47
367,553	17,63
367,916	17,77
368,28	17,86
368,644	17,92
369,007	17,97
369,371	18,1
369,734	18,22
370,098	18,32
370,461	18,43
370,825	18,45
371,188	18,54
371,552	18,64
371,915	18,68
372,278	18,87
372,642	19,02
373,005	19,22
373,368	19,37
373,731	19,5
374,094	19,62
374,457	19,75
374,82	19,92
375,183	20,01
375,546	20,11
375,909	20,25
376,272	20,42
376,635	20,61
376,998	20,67
377,361	20,66
377,723	20,73
378,086	20,81
378,449	20,91
378,811	21,02
379,174	21,14
379,537	21,26
379,899	21,34
380,262	21,38
380,624	21,39
380,987	21,45
381,349	21,51
381,711	21,56
382,074	21,6
382,436	21,65
382,798	21,76
383,16	21,8
383,522	21,84
383,884	21,81
384,247	21,87
384,609	22
384,971	22,09
385,333	22,17
385,695	22,2
386,056	22,24
386,418	22,25
386,78	22,29
387,142	22,3
387,504	22,3
387,865	22,36
388,227	22,41
388,589	22,49
388,95	22,54
389,312	22,56
389,673	22,63
390,035	22,62
390,396	22,64
390,758	22,72
391,119	22,72
391,48	22,75
391,842	22,71
392,203	22,69
392,564	22,69
392,925	22,73
393,286	22,77
393,648	22,8
394,009	22,86
394,37	22,88
394,731	22,96
395,092	23,01
395,452	23,03
395,813	23,05
396,174	23,05
396,535	23,07
396,896	23,17
397,257	23,21
397,617	23,3
397,978	23,31
398,338	23,27
398,699	23,32
399,06	23,45
399,42	23,51
399,781	23,55
400,141	23,6
400,501	23,62
400,862	23,63
401,222	23,68
401,582	23,73
401,943	23,75
402,303	23,81
402,663	23,82
403,023	23,82
403,383	23,87
403,743	23,9
404,103	23,94
404,463	23,94
404,823	24,01
405,183	24,04
405,543	24,07
405,903	24,13
406,262	24,16
406,622	24,11
406,982	24,2
407,342	24,24
407,701	24,28
408,061	24,29
408,42	24,36
408,78	24,4
409,139	24,42
409,499	24,49
409,858	24,5
410,217	24,55
410,577	24,61
410,936	24,62
411,295	24,64
411,655	24,63
412,014	24,64
412,373	24,6
412,732	24,58
413,091	24,56
413,45	24,6
413,809	24,59
414,168	24,63
414,527	24,6
414,886	24,57
415,245	24,55
415,603	24,54
415,962	24,52
416,321	24,49
416,679	24,44
417,038	24,39
417,397	24,36
417,755	24,32
418,114	24,29
418,472	24,29
418,831	24,3
419,189	24,31
419,547	24,31
419,906	24,29
420,264	24,28
420,622	24,27
420,981	24,26
421,339	24,27
421,697	24,28
422,055	24,29
422,413	24,31
422,771	24,33
423,129	24,37
423,487	24,41
423,845	24,45
424,203	24,5
424,56	24,56
424,918	24,6
425,276	24,67
425,634	24,72
425,991	24,75
426,349	24,77
426,707	24,82
427,064	24,86
427,422	24,91
427,779	24,98
428,137	25,08
428,494	25,13
428,851	25,17
429,209	25,2
429,566	25,22
429,923	25,25
430,28	25,24
430,637	25,24
430,995	25,21
431,352	25,19
431,709	25,22
432,066	25,22
432,423	25,26
432,78	25,26
433,137	25,29
433,493	25,28
433,85	25,34
434,207	25,29
434,564	25,3
434,92	25,32
435,277	25,33
435,634	25,3
435,99	25,32
436,347	25,33
436,703	25,34
437,06	25,33
437,416	25,35
437,773	25,36
438,129	25,34
438,485	25,39
438,841	25,38
439,198	25,37
439,554	25,36
439,91	25,35
440,266	25,37
440,622	25,37
440,978	25,4
441,334	25,37
441,69	25,37
442,046	25,35
442,402	25,35
442,758	25,32
443,113	25,35
443,469	25,35
443,825	25,37
444,181	25,37
444,536	25,4
444,892	25,41
445,247	25,45
445,603	25,48
445,958	25,48
446,314	25,52
446,669	25,54
447,025	25,56
447,38	25,58
447,735	25,58
448,09	25,59
448,446	25,61
448,801	25,63
449,156	25,66
449,511	25,72
449,866	25,77
450,221	25,83
450,576	25,85
450,931	25,92
451,286	25,96
451,641	26
451,995	26,02
452,35	26,05
452,705	26,07
453,06	26,06
453,414	26,07
453,769	26,09
454,123	26,1
454,478	26,09
454,832	26,1
455,187	26,08
455,541	26,06
455,896	26,04
456,25	26,02
456,604	26,04
456,958	26,03
457,313	26,02
457,667	26,02
458,021	26,03
458,375	26,03
458,729	26,04
459,083	26,06
459,437	26,08
459,791	26,08
460,145	26,09
460,499	26,11
460,852	26,12
461,206	26,13
461,56	26,11
461,914	26,12
462,267	26,13
462,621	26,15
462,974	26,2
463,328	26,23
463,681	26,27
464,035	26,32
464,388	26,31
464,742	26,35
465,095	26,39
465,448	26,39
465,801	26,37
466,155	26,34
466,508	26,34
466,861	26,33
467,214	26,36
467,567	26,36
467,92	26,37
468,273	26,37
468,626	26,39
468,979	26,4
469,332	26,42
469,684	26,41
470,037	26,42
470,39	26,41
470,743	26,45
471,095	26,47
471,448	26,45
471,8	26,49
472,153	26,53
472,505	26,53
472,858	26,53
473,21	26,56
473,562	26,58
473,915	26,6
474,267	26,61
474,619	26,6
474,971	26,62
475,324	26,62
475,676	26,63
476,028	26,63
476,38	26,65
476,732	26,66
477,084	26,7
477,436	26,67
477,787	26,67
478,139	26,64
478,491	26,65
478,843	26,66
479,195	26,66
479,546	26,62
479,898	26,63
480,249	26,7
480,601	26,76
480,952	26,78
481,304	26,77
481,655	26,79
482,007	26,79
482,358	26,77
482,709	26,77
483,061	26,75
483,412	26,75
483,763	26,74
484,114	26,73
484,465	26,72
484,816	26,73
485,167	26,74
485,518	26,73
485,869	26,73
486,22	26,73
486,571	26,73
486,922	26,73
487,272	26,72
487,623	26,7
487,974	26,67
488,324	26,64
488,675	26,64
489,025	26,62
489,376	26,62
489,726	26,61
490,077	26,63
490,427	26,65
490,778	26,67
491,128	26,68
491,478	26,68
491,828	26,7
492,179	26,7
492,529	26,7
492,879	26,71
493,229	26,74
493,579	26,77
493,929	26,77
494,279	26,8
494,629	26,83
494,979	26,83
495,328	26,86
495,678	26,91
496,028	26,94
496,378	26,97
496,727	26,99
497,077	27,05
497,426	27,06
497,776	27,05
498,125	27,04
498,475	27,04
498,824	27,06
499,174	27,05
499,523	27,1
499,872	27,11
500,221	27,13
500,571	27,12
500,92	27,11
501,269	27,12
501,618	27,13
501,967	27,16
502,316	27,18
502,665	27,16
503,014	27,13
503,363	27,14
503,711	27,13
504,06	27,17
504,409	27,17
504,758	27,17
505,106	27,18
505,455	27,2
505,803	27,21
506,152	27,23
506,5	27,24
506,849	27,22
507,197	27,23
507,546	27,25
507,894	27,29
508,242	27,31
508,59	27,3
508,939	27,31
509,287	27,3
509,635	27,31
509,983	27,34
510,331	27,37
510,679	27,37
511,027	27,39
511,375	27,38
511,723	27,37
512,07	27,39
512,418	27,41
512,766	27,42
513,114	27,44
513,461	27,44
513,809	27,46
514,156	27,46
514,504	27,46
514,851	27,47
515,199	27,44
515,546	27,45
515,893	27,46
516,241	27,46
516,588	27,47
516,935	27,47
517,282	27,47
517,63	27,46
517,977	27,47
518,324	27,45
518,671	27,48
519,018	27,5
519,365	27,49
519,711	27,5
520,058	27,52
520,405	27,52
520,752	27,53
521,099	27,51
521,445	27,53
521,792	27,52
522,138	27,54
522,485	27,55
522,832	27,55
523,178	27,55
523,524	27,54
523,871	27,53
524,217	27,52
524,563	27,51
524,91	27,51
525,256	27,54
525,602	27,57
525,948	27,6
526,294	27,61
526,64	27,61
526,986	27,6
527,332	27,59
527,678	27,59
528,024	27,59
528,37	27,62
528,716	27,62
529,061	27,63
529,407	27,62
529,753	27,62
530,098	27,63
530,444	27,63
530,789	27,64
531,135	27,64
531,48	27,65
531,826	27,66
532,171	27,68
532,516	27,67
532,862	27,67
533,207	27,66
533,552	27,64
533,897	27,65
534,242	27,65
534,587	27,66
534,932	27,68
535,277	27,7
535,622	27,7
535,967	27,73
536,312	27,76
536,657	27,78
537,001	27,8
537,346	27,79
537,691	27,82
538,035	27,82
538,38	27,84
538,724	27,85
539,069	27,84
539,413	27,84
539,758	27,86
540,102	27,85
540,446	27,85
540,791	27,87
541,135	27,86
541,479	27,87
541,823	27,88
542,167	27,88
542,512	27,87
542,856	27,84
543,2	27,84
543,543	27,83
543,887	27,84
544,231	27,83
544,575	27,83
544,919	27,83
545,262	27,86
545,606	27,87
545,95	27,86
546,293	27,88
546,637	27,88
546,98	27,88
547,324	27,88
547,667	27,89
548,011	27,87
548,354	27,91
548,697	27,9
549,04	27,92
549,384	27,92
549,727	27,91
550,07	27,95
550,413	27,92
550,756	27,93
551,099	27,92
551,442	27,92
551,785	27,94
552,128	27,94
552,47	27,91
552,813	27,92
553,156	27,95
553,499	27,95
553,841	27,96
554,184	27,94
554,526	27,94
554,869	27,94
555,211	27,97
555,554	27,94
555,896	27,91
556,238	27,88
556,581	27,85
556,923	27,83
557,265	27,81
557,607	27,8
557,949	27,78
558,291	27,78
558,633	27,76
558,975	27,75
559,317	27,74
559,659	27,73
560,001	27,71
560,343	27,66
560,685	27,66
561,026	27,66
561,368	27,65
561,71	27,62
562,051	27,58
562,393	27,59
562,734	27,54
563,076	27,56
563,417	27,57
563,759	27,6
564,1	27,6
564,441	27,61
564,782	27,6
565,124	27,57
565,465	27,58
565,806	27,59
566,147	27,57
566,488	27,58
566,829	27,6
567,17	27,6
567,511	27,64
567,851	27,64
568,192	27,63
568,533	27,64
568,874	27,65
569,214	27,66
569,555	27,62
569,895	27,64
570,236	27,63
570,576	27,61
570,917	27,6
571,257	27,56
571,598	27,55
571,938	27,57
572,278	27,57
572,618	27,56
572,959	27,59
573,299	27,6
573,639	27,57
573,979	27,54
574,319	27,52
574,659	27,49
574,999	27,46
575,339	27,44
575,678	27,4
576,018	27,38
576,358	27,35
576,698	27,33
577,037	27,3
577,377	27,29
577,716	27,27
578,056	27,24
578,395	27,24
578,735	27,21
579,074	27,15
579,413	27,13
579,753	27,09
580,092	26,97
580,431	26,92
580,77	26,93
581,109	26,9
581,448	26,89
581,787	26,86
582,126	26,87
582,465	26,88
582,804	26,89
583,143	26,9
583,482	26,9
583,82	26,89
584,159	26,92
584,498	26,92
584,836	26,93
585,175	26,91
585,514	26,93
585,852	26,96
586,19	27
586,529	27,01
586,867	27
587,205	27,04
587,544	27,06
587,882	27,02
588,22	27,03
588,558	27,03
588,896	27,03
589,234	26,99
589,572	26,96
589,91	26,97
590,248	26,98
590,586	26,99
590,924	27,02
591,262	27,03
591,599	27,01
591,937	27,03
592,275	27,04
592,612	27,05
592,95	27,05
593,287	27,05
593,625	27,07
593,962	27,15
594,299	27,18
594,637	27,2
594,974	27,24
595,311	27,25
595,648	27,26
595,985	27,29
596,322	27,3
596,659	27,32
596,996	27,33
597,333	27,31
597,67	27,32
598,007	27,29
598,344	27,27
598,681	27,31
599,017	27,28
599,354	27,3
599,691	27,34
600,027	27,35
600,364	27,34
600,7	27,32
601,037	27,36
601,373	27,36
601,71	27,37
602,046	27,36
602,382	27,36
602,718	27,39
603,054	27,37
603,391	27,35
603,727	27,35
604,063	27,32
604,399	27,33
604,735	27,35
605,071	27,38
605,406	27,39
605,742	27,39
606,078	27,44
606,414	27,45
606,749	27,42
607,085	27,41
607,421	27,44
607,756	27,43
608,092	27,36
608,427	27,36
608,762	27,31
609,098	27,31
609,433	27,29
609,768	27,28
610,104	27,3
610,439	27,31
610,774	27,31
611,109	27,32
611,444	27,28
611,779	27,25
612,114	27,19
612,449	27,19
612,784	27,15
613,118	27,11
613,453	27,07
613,788	27,07
614,123	27,04
614,457	26,98
614,792	26,95
615,126	26,94
615,461	26,91
615,795	26,94
616,13	26,91
616,464	26,94
616,798	26,89
617,132	26,86
617,467	26,88
617,801	26,84
618,135	26,85
618,469	26,87
618,803	26,88
619,137	26,9
619,471	26,93
619,805	26,91
620,139	26,92
620,472	26,95
620,806	26,94
621,14	26,97
621,473	26,97
621,807	26,97
622,141	26,94
622,474	26,93
622,808	26,94
623,141	26,98
623,474	27,01
623,808	27,05
624,141	27,08
624,474	27,09
624,807	27,11
625,141	27,13
625,474	27,14
625,807	27,21
626,14	27,19
626,473	27,19
626,806	27,23
627,138	27,23
627,471	27,2
627,804	27,15
628,137	27,17
628,469	27,16
628,802	27,18
629,135	27,22
629,467	27,22
629,8	27,18
630,132	27,21
630,465	27,15
630,797	27,18
631,129	27,11
631,461	27,07
631,794	27,06
632,126	27,07
632,458	27,08
632,79	27,05
633,122	27,06
633,454	27,03
633,786	26,99
634,118	26,93
634,45	26,96
634,781	26,98
635,113	26,91
635,445	26,94
635,777	26,93
636,108	26,88
636,44	26,92
636,771	26,95
637,103	26,89
637,434	26,86
637,765	26,8
638,097	26,82
638,428	26,87
638,759	26,86
639,09	26,83
639,422	26,8
639,753	26,74
640,084	26,75
640,415	26,75
640,746	26,76
641,077	26,81
641,407	26,8
641,738	26,81
642,069	26,87
642,4	26,88
642,73	26,89
643,061	26,99
643,392	26,95
643,722	27
644,053	27,04
644,383	27,09
644,713	27,11
